Timestamp,F3 Value,F3 Quality,FC5 Value,FC5 Quality,F7 Value,F7 Quality,T7 Value,T7 Quality,P7 Value,P7 Quality,O1 Value,O1 Quality,O2 Value,O2 Quality,P8 Value,P8 Quality,T8 Value,T8 Quality,F8 Value,F8 Quality,AF4 Value,AF4 Quality,FC6 Value,FC6 Quality,F4 Value,F4 Quality,AF3 Value,AF3 Quality,X Value,Y Value,Z Value
2017-06-30 14:06:44.716395,4227.33333291,0,4232.48484806,0,4228.36363594,0,4225.27272685,0,4225.78787837,0,4222.69696927,0,4225.27272685,0,4228.87878746,0,4238.15151473,0,4299.45454502,0,4232.48484806,0,4177.36363595,0,3484.48484814,0,4227.84848443,0,42.0,42.0,?
2017-06-30 14:06:44.717419,4231.96969655,0,4220.63636321,0,4192.8181814,0,4226.8181814,0,4223.21212079,0,4224.24242382,0,4229.39393897,0,4231.96969655,0,4238.66666624,0,4283.99999957,0,4211.36363594,0,4176.33333292,0,3481.90909056,0,4221.66666624,0,42.0,42.0,?
2017-06-30 14:06:44.717797,4231.96969655,0,4220.63636321,0,4192.8181814,0,4226.8181814,0,4223.21212079,0,4224.24242382,0,4229.39393897,0,4231.96969655,0,4238.66666624,0,4283.99999957,0,4211.36363594,0,4176.33333292,0,3481.90909056,0,4221.66666624,0,42.0,42.0,?
2017-06-30 14:06:44.722028,4231.96969655,0,4220.63636321,0,4192.8181814,0,4226.8181814,0,4223.21212079,0,4224.24242382,0,4229.39393897,0,4231.96969655,0,4238.66666624,0,4283.99999957,0,4211.36363594,0,4176.33333292,0,3481.90909056,0,4221.66666624,0,42.0,42.0,?
2017-06-30 14:06:44.722105,4229.39393897,0,4224.75757534,0,4207.75757534,0,4228.87878746,0,4226.30302988,0,4219.60606018,0,4226.8181814,0,4234.03030261,0,4236.60606018,0,4296.36363593,0,4214.96969655,0,4179.93939352,0,3484.99999965,0,4230.93939352,0,42.0,42.0,?
2017-06-30 14:06:44.722615,4228.87878746,0,4226.30302988,0,4194.36363594,0,4230.424242,0,4225.78787837,0,4225.27272685,0,4232.48484806,0,4235.57575715,0,4236.60606018,0,4291.7272723,0,4211.36363594,0,4176.84848443,0,3484.99999965,0,4227.33333291,0,42.0,42.0,?
2017-06-30 14:06:44.723074,4231.45454503,0,4228.87878746,0,4199.5151511,0,4228.36363594,0,4227.33333291,0,4223.21212079,0,4228.87878746,0,4233.51515109,0,4234.54545412,0,4291.7272723,0,4217.54545412,0,4174.27272686,0,3479.33333299,0,4237.1212117,0,42.0,42.0,?
2017-06-30 14:06:44.724426,4231.45454503,0,4228.87878746,0,4199.5151511,0,4228.36363594,0,4227.33333291,0,4223.21212079,0,4228.87878746,0,4233.51515109,0,4234.54545412,0,4291.7272723,0,4217.54545412,0,4174.27272686,0,3479.33333299,0,4237.1212117,0,42.0,42.0,?
2017-06-30 14:06:44.726223,4227.33333291,0,4233.51515109,0,4209.30302988,0,4228.87878746,0,4227.33333291,0,4228.87878746,0,4226.8181814,0,4237.1212117,0,4237.63636321,0,4298.93939351,0,4228.87878746,0,4172.72727231,0,3482.42424208,0,4235.57575715,0,42.0,42.0,?
2017-06-30 14:06:44.726598,4227.33333291,0,4233.51515109,0,4209.30302988,0,4228.87878746,0,4227.33333291,0,4228.87878746,0,4226.8181814,0,4237.1212117,0,4237.63636321,0,4298.93939351,0,4228.87878746,0,4172.72727231,0,3482.42424208,0,4235.57575715,0,42.0,42.0,?
2017-06-30 14:06:44.731506,4229.90909049,0,4232.48484806,0,4208.78787837,0,4228.87878746,0,4226.30302988,0,4227.33333291,0,4230.424242,0,4235.57575715,0,4234.03030261,0,4296.36363593,0,4228.36363594,0,4174.78787837,0,3481.39393905,0,4238.66666624,0,42.0,42.0,?
2017-06-30 14:06:44.739944,4231.45454503,0,4230.424242,0,4213.93939352,0,4228.87878746,0,4229.39393897,0,4229.39393897,0,4222.69696927,0,4229.90909049,0,4234.54545412,0,4300.48484805,0,4231.45454503,0,4178.39393898,0,3481.39393905,0,4229.39393897,0,42.0,42.0,?
2017-06-30 14:06:44.747511,4228.87878746,0,4224.24242382,0,4211.36363594,0,4228.87878746,0,4223.7272723,0,4226.8181814,0,4227.33333291,0,4227.33333291,0,4236.60606018,0,4301.51515109,0,4232.99999958,0,4176.84848443,0,3483.45454511,0,4226.30302988,0,42.0,42.0,?
2017-06-30 14:06:44.755924,4225.27272685,0,4227.84848443,0,4219.60606018,0,4229.39393897,0,4228.36363594,0,4227.84848443,0,4218.57575715,0,4228.87878746,0,4234.54545412,0,4298.93939351,0,4226.30302988,0,4172.72727231,0,3481.39393905,0,4224.24242382,0,42.0,42.0,?
2017-06-30 14:06:44.764849,4229.90909049,0,4220.63636321,0,4202.60606019,0,4229.39393897,0,4224.24242382,0,4230.424242,0,4223.7272723,0,4230.424242,0,4238.66666624,0,4285.0303026,0,4212.39393897,0,4176.84848443,0,3483.96969662,0,4218.06060564,0,42.0,42.0,?
2017-06-30 14:06:44.775772,4229.90909049,0,4224.24242382,0,4206.72727231,0,4229.90909049,0,4230.424242,0,4227.84848443,0,4211.36363594,0,4227.33333291,0,4236.09090867,0,4295.3333329,0,4220.63636321,0,4176.33333292,0,3483.96969662,0,4216.51515109,0,42.0,42.0,?
2017-06-30 14:06:44.779529,4230.93939352,0,4224.24242382,0,4197.96969655,0,4228.36363594,0,4226.30302988,0,4224.24242382,0,4224.75757534,0,4232.48484806,0,4237.63636321,0,4285.0303026,0,4214.96969655,0,4174.78787837,0,3482.42424208,0,4220.1212117,0,42.0,42.0,?
2017-06-30 14:06:44.787499,4228.87878746,0,4230.93939352,0,4216.51515109,0,4229.90909049,0,4229.90909049,0,4224.24242382,0,4212.39393897,0,4233.51515109,0,4234.54545412,0,4299.45454502,0,4224.24242382,0,4173.24242383,0,3480.36363602,0,4227.84848443,0,42.0,42.0,?
2017-06-30 14:06:44.795164,4233.51515109,0,4222.69696927,0,4200.54545413,0,4232.48484806,0,4223.7272723,0,4224.24242382,0,4231.45454503,0,4236.09090867,0,4234.03030261,0,4291.7272723,0,4217.54545412,0,4175.8181814,0,3482.93939359,0,4231.96969655,0,42.0,42.0,?
2017-06-30 14:06:44.802504,4232.99999958,0,4228.36363594,0,4210.33333291,0,4230.424242,0,4227.84848443,0,4222.18181776,0,4231.45454503,0,4231.45454503,0,4235.06060564,0,4302.54545412,0,4224.75757534,0,4175.8181814,0,3483.96969662,0,4242.27272685,0,42.0,42.0,?
2017-06-30 14:06:44.810494,4232.48484806,8.2424242416,4227.33333291,0,4196.93939352,0,4227.84848443,0,4225.27272685,0,4225.27272685,0,4239.18181776,0,4232.99999958,0,4240.21212079,0,4287.09090866,0,4211.87878746,0,4176.33333292,0,3484.48484814,0,4235.06060564,0,42.0,42.0,?
2017-06-30 14:06:44.818585,4231.96969655,8.2424242416,4229.39393897,4.1212121208,4209.8181814,0,4227.84848443,0,4226.30302988,0,4224.75757534,0,4221.15151473,0,4232.48484806,0,4236.60606018,0,4303.06060563,0,4224.24242382,0,4178.39393898,0,3483.45454511,0,4234.54545412,0,42.0,42.0,?
2017-06-30 14:06:44.828573,4234.54545412,8.2424242416,4225.78787837,4.1212121208,4194.36363594,0,4227.84848443,0,4224.24242382,0,4229.39393897,0,4231.96969655,0,4236.60606018,0,4237.1212117,0,4290.69696927,0,4224.75757534,0,4178.39393898,0,3482.42424208,0,4230.424242,8.2424242416,42.0,42.0,?
2017-06-30 14:06:44.836199,4231.96969655,8.2424242416,4230.93939352,4.1212121208,4213.93939352,74.1818181744,4226.8181814,0,4227.33333291,0,4229.39393897,0,4230.93939352,0,4234.54545412,0,4238.66666624,0,4303.06060563,0,4241.75757533,0,4177.36363595,0,3481.90909056,0,4237.1212117,8.2424242416,42.0,42.0,?
2017-06-30 14:06:44.842524,4231.96969655,8.2424242416,4225.27272685,4.1212121208,4212.39393897,74.1818181744,4226.8181814,4.1212121208,4229.39393897,0,4228.87878746,0,4229.39393897,0,4233.51515109,0,4237.63636321,0,4292.24242381,0,4224.75757534,0,4177.87878746,0,3479.8484845,0,4221.15151473,8.2424242416,42.0,42.0,?
2017-06-30 14:06:44.849526,4230.424242,8.2424242416,4225.78787837,4.1212121208,4214.45454503,74.1818181744,4227.33333291,4.1212121208,4228.36363594,0.0,4226.30302988,0,4214.96969655,0,4228.87878746,0,4235.57575715,0,4299.96969654,0,4227.84848443,0,4176.84848443,0,3479.8484845,0,4216.51515109,8.2424242416,42.0,42.0,?
2017-06-30 14:06:44.858474,4228.87878746,8.2424242416,4229.90909049,4.1212121208,4207.75757534,74.1818181744,4229.90909049,4.1212121208,4228.36363594,0.0,4230.424242,0.0,4218.57575715,0,4229.39393897,0,4237.63636321,0,4296.87878745,0,4226.8181814,0,4174.27272686,0,3482.42424208,0,4219.09090867,8.2424242416,42.0,42.0,?
2017-06-30 14:06:44.866208,4230.93939352,8.2424242416,4227.84848443,4.1212121208,4210.33333291,74.1818181744,4231.45454503,4.1212121208,4225.78787837,0.0,4227.33333291,0.0,4225.27272685,8.2424242416,4228.87878746,0,4237.63636321,0,4303.57575715,0,4230.424242,0,4177.36363595,0,3484.48484814,0,4226.8181814,8.2424242416,42.0,42.0,?
2017-06-30 14:06:44.873508,4229.90909049,8.2424242416,4224.24242382,4.1212121208,4209.30302988,74.1818181744,4229.90909049,4.1212121208,4230.93939352,0.0,4224.75757534,0.0,4216.51515109,8.2424242416,4229.39393897,4.1212121208,4235.06060564,0,4297.39393896,0,4222.69696927,0,4178.39393898,0,3481.39393905,0,4220.63636321,8.2424242416,42.0,42.0,?
2017-06-30 14:06:44.882727,4229.39393897,8.2424242416,4224.75757534,4.1212121208,4205.69696928,74.1818181744,4229.39393897,4.1212121208,4227.84848443,0.0,4223.7272723,0.0,4216.51515109,8.2424242416,4229.39393897,4.1212121208,4235.06060564,12.3636363624,4293.78787836,0,4218.57575715,0,4177.36363595,0,3480.87878753,0,4223.21212079,8.2424242416,42.0,42.0,?
2017-06-30 14:06:44.889633,4230.424242,8.2424242416,4230.93939352,4.1212121208,4206.72727231,74.1818181744,4230.424242,4.1212121208,4227.84848443,0.0,4224.24242382,0.0,4221.15151473,8.2424242416,4230.93939352,4.1212121208,4235.06060564,12.3636363624,4295.84848442,461.57575753,4215.48484806,0,4176.33333292,0,3481.39393905,0,4225.78787837,8.2424242416,42.0,42.0,?
2017-06-30 14:06:44.897501,4233.51515109,8.2424242416,4226.30302988,4.1212121208,4196.93939352,74.1818181744,4229.90909049,4.1212121208,4221.66666624,0.0,4222.18181776,0.0,4236.60606018,8.2424242416,4233.51515109,4.1212121208,4237.1212117,12.3636363624,4289.15151472,461.57575753,4213.424242,247.272727248,4177.36363595,0,3481.90909056,0,4232.48484806,8.2424242416,42.0,42.0,?
2017-06-30 14:06:44.906814,4230.93939352,8.2424242416,4227.84848443,4.1212121208,4206.21212079,74.1818181744,4228.36363594,4.1212121208,4226.8181814,0.0,4225.27272685,0.0,4224.75757534,8.2424242416,4234.03030261,4.1212121208,4235.57575715,12.3636363624,4296.36363593,461.57575753,4220.63636321,247.272727248,4173.75757534,8.2424242416,3480.87878753,0,4234.54545412,8.2424242416,42.0,42.0,?
2017-06-30 14:06:44.913517,4230.424242,8.2424242416,4226.30302988,4.1212121208,4196.93939352,74.1818181744,4226.8181814,4.1212121208,4221.66666624,0.0,4227.84848443,0.0,4234.03030261,8.2424242416,4236.09090867,4.1212121208,4236.60606018,12.3636363624,4290.69696927,461.57575753,4215.48484806,247.272727248,4176.84848443,8.2424242416,3483.45454511,12.3636363624,4235.06060564,8.2424242416,42.0,42.0,?
2017-06-30 14:06:44.923315,4226.8181814,8.2424242416,4233.51515109,4.1212121208,4206.21212079,74.1818181744,4227.84848443,4.1212121208,4225.27272685,0.0,4224.24242382,0.0,4223.7272723,8.2424242416,4235.57575715,4.1212121208,4235.06060564,12.3636363624,4302.54545412,461.57575753,4223.7272723,247.272727248,4178.39393898,8.2424242416,3483.96969662,12.3636363624,4233.51515109,8.2424242416,42.0,42.0,?
2017-06-30 14:06:44.928519,4229.90909049,8.2424242416,4227.84848443,4.1212121208,4193.84848443,74.1818181744,4228.36363594,4.1212121208,4222.18181776,0.0,4226.8181814,0.0,4235.57575715,8.2424242416,4235.57575715,4.1212121208,4237.63636321,12.3636363624,4294.81818139,461.57575753,4224.24242382,251.393939369,4178.39393898,8.2424242416,3483.96969662,12.3636363624,4231.96969655,8.2424242416,42.0,42.0,?
2017-06-30 14:06:44.937107,4230.424242,8.2424242416,4234.03030261,4.1212121208,4219.60606018,74.1818181744,4227.84848443,4.1212121208,4230.93939352,0.0,4230.424242,0.0,4224.24242382,8.2424242416,4229.39393897,4.1212121208,4235.57575715,12.3636363624,4313.87878745,461.57575753,4239.18181776,251.393939369,4176.84848443,8.2424242416,3481.39393905,12.3636363624,4241.75757533,8.2424242416,42.0,42.0,?
2017-06-30 14:06:44.944633,4229.90909049,8.2424242416,4228.87878746,4.1212121208,4211.87878746,74.1818181744,4227.84848443,4.1212121208,4227.84848443,0.0,4228.36363594,0.0,4234.03030261,8.2424242416,4231.96969655,4.1212121208,4238.15151473,12.3636363624,4300.48484805,461.57575753,4223.7272723,251.393939369,4177.87878746,8.2424242416,3483.96969662,12.3636363624,4234.03030261,8.2424242416,42.0,42.0,?
2017-06-30 14:06:44.952760,4226.30302988,8.2424242416,4230.93939352,4.1212121208,4220.63636321,74.1818181744,4229.90909049,4.1212121208,4228.36363594,0.0,4225.27272685,0.0,4222.69696927,8.2424242416,4231.96969655,4.1212121208,4238.66666624,12.3636363624,4306.15151472,461.57575753,4231.96969655,251.393939369,4176.84848443,8.2424242416,3484.48484814,12.3636363624,4228.87878746,8.2424242416,42.0,42.0,?
2017-06-30 14:06:44.960535,4230.424242,8.2424242416,4227.84848443,4.1212121208,4206.21212079,74.1818181744,4231.45454503,4.1212121208,4226.8181814,0.0,4229.90909049,0.0,4229.39393897,8.2424242416,4230.93939352,4.1212121208,4237.1212117,12.3636363624,4293.27272684,461.57575753,4228.36363594,251.393939369,4178.39393898,8.2424242416,3483.45454511,12.3636363624,4224.24242382,8.2424242416,42.0,42.0,?
2017-06-30 14:06:44.970364,4231.45454503,8.2424242416,4229.90909049,4.1212121208,4221.15151473,74.1818181744,4229.39393897,4.1212121208,4230.424242,0.0,4228.36363594,0.0,4218.06060564,8.2424242416,4227.33333291,4.1212121208,4231.45454503,12.3636363624,4306.15151472,461.57575753,4234.54545412,251.393939369,4179.42424201,8.2424242416,3483.96969662,12.3636363624,4229.39393897,8.2424242416,42.0,42.0,?
2017-06-30 14:06:44.976600,4231.45454503,8.2424242416,4221.15151473,4.1212121208,4199.5151511,74.1818181744,4229.39393897,4.1212121208,4226.30302988,0.0,4227.33333291,0.0,4227.84848443,8.2424242416,4231.96969655,4.1212121208,4234.54545412,12.3636363624,4286.57575715,461.57575753,4216.51515109,251.393939369,4177.87878746,8.2424242416,3486.03030268,12.3636363624,4217.54545412,8.2424242416,42.0,42.0,?
2017-06-30 14:06:44.983533,4230.424242,8.2424242416,4225.27272685,4.1212121208,4202.60606019,74.1818181744,4228.87878746,4.1212121208,4226.8181814,0.0,4225.78787837,0.0,4220.63636321,8.2424242416,4229.39393897,4.1212121208,4238.15151473,12.3636363624,4298.93939351,461.57575753,4226.30302988,251.393939369,4176.33333292,8.2424242416,3483.45454511,12.3636363624,4220.1212117,8.2424242416,42.0,42.0,?
2017-06-30 14:06:44.991538,4230.93939352,8.2424242416,4227.33333291,4.1212121208,4200.54545413,74.1818181744,4227.84848443,4.1212121208,4229.90909049,0.0,4227.33333291,0.0,4221.15151473,8.2424242416,4230.424242,4.1212121208,4239.18181776,12.3636363624,4293.27272684,461.57575753,4218.57575715,251.393939369,4179.42424201,8.2424242416,3480.36363602,12.3636363624,4217.03030261,8.2424242416,42.0,42.0,?
2017-06-30 14:06:44.999515,4229.90909049,8.2424242416,4224.24242382,4.1212121208,4203.1212117,74.1818181744,4227.84848443,4.1212121208,4226.30302988,0.0,4223.21212079,0.0,4219.09090867,8.2424242416,4229.90909049,4.1212121208,4235.06060564,12.3636363624,4295.84848442,461.57575753,4221.15151473,251.393939369,4178.39393898,8.2424242416,3481.39393905,12.3636363624,4221.15151473,8.2424242416,42.0,42.0,?
2017-06-30 14:06:45.009625,4228.36363594,8.2424242416,4223.21212079,4.1212121208,4194.36363594,74.1818181744,4229.39393897,4.1212121208,4224.75757534,0.0,4224.24242382,0.0,4222.18181776,8.2424242416,4231.96969655,4.1212121208,4234.54545412,12.3636363624,4295.84848442,461.57575753,4219.60606018,251.393939369,4171.69696928,8.2424242416,3481.39393905,12.3636363624,4226.8181814,8.2424242416,42.0,42.0,?
2017-06-30 14:06:45.015927,4230.93939352,8.2424242416,4227.33333291,4.1212121208,4202.09090867,74.1818181744,4229.90909049,4.1212121208,4224.75757534,0.0,4222.18181776,0.0,4230.424242,8.2424242416,4232.99999958,4.1212121208,4239.18181776,12.3636363624,4299.96969654,461.57575753,4224.24242382,251.393939369,4174.27272686,8.2424242416,3483.45454511,12.3636363624,4243.30302988,8.2424242416,42.0,42.0,?
2017-06-30 14:06:45.023896,4232.48484806,8.2424242416,4230.93939352,4.1212121208,4206.72727231,74.1818181744,4228.36363594,4.1212121208,4229.39393897,0.0,4223.7272723,0.0,4229.39393897,8.2424242416,4231.96969655,4.1212121208,4239.18181776,12.3636363624,4292.24242381,461.57575753,4221.66666624,251.393939369,4177.87878746,8.2424242416,3485.51515117,12.3636363624,4237.63636321,8.2424242416,42.0,42.0,?
2017-06-30 14:06:45.031510,4232.99999958,8.2424242416,4229.39393897,4.1212121208,4201.57575716,74.1818181744,4227.33333291,4.1212121208,4226.30302988,0.0,4226.8181814,0.0,4232.99999958,8.2424242416,4232.99999958,4.1212121208,4238.15151473,12.3636363624,4294.30302987,461.57575753,4226.30302988,251.393939369,4176.84848443,8.2424242416,3488.09090874,12.3636363624,4232.48484806,8.2424242416,42.0,42.0,?
2017-06-30 14:06:45.039564,4230.424242,8.2424242416,4230.424242,4.1212121208,4208.78787837,74.1818181744,4228.36363594,4.1212121208,4230.93939352,0.0,4227.84848443,0.0,4220.63636321,8.2424242416,4234.03030261,4.1212121208,4238.15151473,12.3636363624,4302.54545412,461.57575753,4229.90909049,251.393939369,4176.33333292,8.2424242416,3484.99999965,12.3636363624,4226.30302988,8.2424242416,42.0,42.0,?
2017-06-30 14:06:45.047609,4231.96969655,8.2424242416,4225.27272685,4.1212121208,4202.09090867,74.1818181744,4227.84848443,4.1212121208,4224.75757534,0.0,4227.33333291,0.0,4228.87878746,8.2424242416,4236.09090867,4.1212121208,4239.69696927,12.3636363624,4295.3333329,461.57575753,4230.424242,251.393939369,4179.93939352,8.2424242416,3484.99999965,12.3636363624,4224.75757534,8.2424242416,42.0,42.0,?
2017-06-30 14:06:45.054514,4229.90909049,8.2424242416,4230.424242,4.1212121208,4216.51515109,74.1818181744,4226.30302988,4.1212121208,4227.33333291,0.0,4228.87878746,0.0,4223.7272723,8.2424242416,4234.03030261,4.1212121208,4234.54545412,12.3636363624,4300.48484805,461.57575753,4231.96969655,251.393939369,4176.84848443,8.2424242416,3484.48484814,12.3636363624,4225.78787837,8.2424242416,42.0,42.0,?
2017-06-30 14:06:45.062659,4229.90909049,8.2424242416,4225.27272685,4.1212121208,4204.66666625,74.1818181744,4226.30302988,4.1212121208,4224.24242382,0.0,4228.36363594,0.0,4231.96969655,8.2424242416,4232.48484806,4.1212121208,4237.63636321,12.3636363624,4291.21212078,461.57575753,4217.03030261,251.393939369,4175.8181814,8.2424242416,3485.51515117,12.3636363624,4219.09090867,8.2424242416,42.0,42.0,?
2017-06-30 14:06:45.070636,4225.78787837,8.2424242416,4229.39393897,4.1212121208,4213.424242,74.1818181744,4229.90909049,4.1212121208,4229.39393897,0.0,4224.24242382,0.0,4215.48484806,8.2424242416,4228.87878746,4.1212121208,4238.15151473,12.3636363624,4305.63636321,461.57575753,4228.87878746,251.393939369,4175.8181814,8.2424242416,3483.96969662,12.3636363624,4217.54545412,8.2424242416,42.0,42.0,?
2017-06-30 14:06:45.078605,4228.36363594,8.2424242416,4225.27272685,4.1212121208,4203.1212117,74.1818181744,4231.45454503,4.1212121208,4225.27272685,0.0,4224.24242382,0.0,4226.30302988,8.2424242416,4231.96969655,4.1212121208,4237.63636321,12.3636363624,4297.90909048,461.57575753,4222.18181776,251.393939369,4176.33333292,8.2424242416,3483.45454511,12.3636363624,4220.1212117,8.2424242416,42.0,42.0,?
2017-06-30 14:06:45.086969,4229.90909049,8.2424242416,4227.84848443,4.1212121208,4217.03030261,74.1818181744,4229.90909049,4.1212121208,4229.39393897,0.0,4224.75757534,0.0,4215.48484806,8.2424242416,4227.84848443,4.1212121208,4235.57575715,12.3636363624,4305.12121169,461.57575753,4227.33333291,251.393939369,4176.84848443,8.2424242416,3483.45454511,12.3636363624,4229.39393897,8.2424242416,42.0,42.0,?
2017-06-30 14:06:45.095427,4232.99999958,8.2424242416,4224.24242382,4.1212121208,4197.96969655,74.1818181744,4229.39393897,4.1212121208,4223.7272723,0.0,4225.27272685,0.0,4226.8181814,8.2424242416,4227.33333291,4.1212121208,4239.69696927,12.3636363624,4287.60606018,461.57575753,4214.96969655,251.393939369,4177.87878746,8.2424242416,3484.99999965,12.3636363624,4226.8181814,8.2424242416,42.0,42.0,?
2017-06-30 14:06:45.106025,4231.96969655,8.2424242416,4230.93939352,4.1212121208,4213.93939352,74.1818181744,4229.90909049,4.1212121208,4228.36363594,0.0,4221.66666624,0.0,4220.1212117,8.2424242416,4227.84848443,4.1212121208,4238.66666624,12.3636363624,4302.54545412,461.57575753,4220.63636321,251.393939369,4175.8181814,8.2424242416,3482.42424208,12.3636363624,4230.93939352,8.2424242416,42.0,42.0,?
2017-06-30 14:06:45.111529,4233.51515109,8.2424242416,4223.21212079,4.1212121208,4202.09090867,74.1818181744,4230.93939352,4.1212121208,4226.30302988,0.0,4223.21212079,0.0,4231.96969655,8.2424242416,4233.51515109,4.1212121208,4238.66666624,12.3636363624,4285.0303026,461.57575753,4208.27272685,251.393939369,4176.33333292,8.2424242416,3481.90909056,12.3636363624,4226.30302988,8.2424242416,42.0,42.0,?
2017-06-30 14:06:45.118624,4230.93939352,8.2424242416,4225.78787837,4.1212121208,4204.15151473,74.1818181744,4229.90909049,4.1212121208,4223.7272723,0.0,4222.69696927,0.0,4225.27272685,8.2424242416,4232.99999958,4.1212121208,4236.60606018,12.3636363624,4294.30302987,461.57575753,4224.24242382,251.393939369,4177.87878746,8.2424242416,3484.99999965,12.3636363624,4232.48484806,8.2424242416,42.0,42.0,?
2017-06-30 14:06:45.125831,4231.45454503,8.2424242416,4229.39393897,4.1212121208,4188.69696928,74.1818181744,4229.90909049,4.1212121208,4222.18181776,0.0,4226.8181814,0.0,4236.09090867,8.2424242416,4236.60606018,4.1212121208,4238.15151473,12.3636363624,4287.60606018,461.57575753,4217.54545412,251.393939369,4179.42424201,8.2424242416,3486.5454542,12.3636363624,4232.99999958,8.2424242416,42.0,42.0,?
2017-06-30 14:06:45.133531,4234.54545412,8.2424242416,4232.48484806,4.1212121208,4208.27272685,74.1818181744,4228.36363594,4.1212121208,4227.33333291,0.0,4226.8181814,0.0,4231.96969655,8.2424242416,4232.48484806,4.1212121208,4238.15151473,12.3636363624,4302.0303026,461.57575753,4223.21212079,251.393939369,4178.90909049,8.2424242416,3483.96969662,12.3636363624,4240.21212079,8.2424242416,42.0,42.0,?
2017-06-30 14:06:45.143503,4232.99999958,8.2424242416,4229.39393897,4.1212121208,4208.27272685,74.1818181744,4226.8181814,4.1212121208,4228.87878746,0.0,4227.33333291,0.0,4227.84848443,8.2424242416,4230.93939352,4.1212121208,4240.21212079,12.3636363624,4294.81818139,461.57575753,4224.24242382,251.393939369,4177.36363595,8.2424242416,3484.48484814,12.3636363624,4227.33333291,8.2424242416,42.0,42.0,?
2017-06-30 14:06:45.149553,4228.87878746,8.2424242416,4232.99999958,4.1212121208,4213.424242,74.1818181744,4227.84848443,4.1212121208,4225.78787837,0.0,4223.7272723,0.0,4226.8181814,8.2424242416,4232.48484806,4.1212121208,4239.18181776,12.3636363624,4301.51515109,461.57575753,4240.7272723,251.393939369,4178.90909049,8.2424242416,3488.09090874,12.3636363624,4234.54545412,8.2424242416,42.0,42.0,?
2017-06-30 14:06:45.157521,4227.33333291,8.2424242416,4232.99999958,4.1212121208,4218.57575715,74.1818181744,4229.90909049,4.1212121208,4228.36363594,0.0,4226.8181814,0.0,4227.33333291,8.2424242416,4234.03030261,4.1212121208,4237.1212117,12.3636363624,4299.96969654,461.57575753,4238.15151473,251.393939369,4178.90909049,8.2424242416,3487.06060571,12.3636363624,4237.1212117,8.2424242416,42.0,42.0,?
2017-06-30 14:06:45.165495,4227.33333291,8.2424242416,4228.36363594,4.1212121208,4216.51515109,74.1818181744,4229.39393897,4.1212121208,4225.27272685,0.0,4228.36363594,0.0,4224.75757534,8.2424242416,4229.39393897,4.1212121208,4236.60606018,12.3636363624,4302.54545412,461.57575753,4237.63636321,251.393939369,4179.93939352,8.2424242416,3483.45454511,12.3636363624,4226.8181814,8.2424242416,42.0,42.0,?
2017-06-30 14:06:45.173511,4226.30302988,8.2424242416,4229.39393897,4.1212121208,4207.75757534,74.1818181744,4229.90909049,4.1212121208,4227.33333291,0.0,4227.33333291,0.0,4217.54545412,8.2424242416,4229.90909049,4.1212121208,4235.06060564,12.3636363624,4296.87878745,461.57575753,4228.36363594,251.393939369,4179.93939352,8.2424242416,3481.39393905,12.3636363624,4217.54545412,8.2424242416,42.0,42.0,?
2017-06-30 14:06:45.180506,4229.39393897,8.2424242416,4224.75757534,4.1212121208,4204.15151473,74.1818181744,4231.45454503,4.1212121208,4223.7272723,0.0,4222.69696927,0.0,4225.27272685,8.2424242416,4231.96969655,4.1212121208,4236.60606018,12.3636363624,4291.21212078,461.57575753,4220.1212117,251.393939369,4180.96969655,8.2424242416,3486.5454542,12.3636363624,4229.90909049,8.2424242416,42.0,42.0,?
2017-06-30 14:06:45.188496,4230.424242,8.2424242416,4229.39393897,4.1212121208,4219.60606018,74.1818181744,4229.39393897,4.1212121208,4229.39393897,0.0,4222.18181776,0.0,4217.54545412,8.2424242416,4231.96969655,4.1212121208,4235.57575715,12.3636363624,4302.0303026,461.57575753,4226.8181814,251.393939369,4178.90909049,8.2424242416,3486.03030268,12.3636363624,4233.51515109,8.2424242416,42.0,42.0,?
2017-06-30 14:06:45.196509,4234.54545412,8.2424242416,4227.84848443,4.1212121208,4203.63636322,74.1818181744,4226.8181814,4.1212121208,4227.33333291,0.0,4225.27272685,0.0,4230.93939352,8.2424242416,4234.03030261,4.1212121208,4237.63636321,12.3636363624,4292.75757533,461.57575753,4219.60606018,251.393939369,4179.42424201,8.2424242416,3481.90909056,12.3636363624,4226.8181814,8.2424242416,42.0,42.0,?
2017-06-30 14:06:45.204570,4234.03030261,8.2424242416,4229.39393897,4.1212121208,4203.1212117,74.1818181744,4226.8181814,4.1212121208,4230.93939352,0.0,4226.30302988,0.0,4220.63636321,8.2424242416,4232.99999958,4.1212121208,4236.60606018,12.3636363624,4295.84848442,461.57575753,4214.96969655,251.393939369,4178.39393898,8.2424242416,3480.36363602,12.3636363624,4225.27272685,8.2424242416,42.0,42.0,?
2017-06-30 14:06:45.212539,4234.54545412,8.2424242416,4225.78787837,4.1212121208,4192.8181814,74.1818181744,4226.30302988,4.1212121208,4223.21212079,0.0,4224.24242382,0.0,4230.93939352,8.2424242416,4235.06060564,4.1212121208,4239.69696927,12.3636363624,4289.15151472,461.57575753,4213.424242,251.393939369,4178.39393898,8.2424242416,3485.51515117,12.3636363624,4228.36363594,8.2424242416,42.0,42.0,?
2017-06-30 14:06:45.220539,4230.93939352,8.2424242416,4232.99999958,4.1212121208,4208.27272685,74.1818181744,4226.30302988,4.1212121208,4229.39393897,0.0,4222.69696927,0.0,4223.7272723,8.2424242416,4231.96969655,4.1212121208,4236.60606018,12.3636363624,4305.63636321,461.57575753,4234.03030261,251.393939369,4178.39393898,8.2424242416,3485.51515117,12.3636363624,4235.06060564,8.2424242416,42.0,42.0,?
2017-06-30 14:06:45.228584,4232.48484806,8.2424242416,4226.8181814,4.1212121208,4193.33333291,74.1818181744,4227.33333291,4.1212121208,4224.75757534,0.0,4224.24242382,0.0,4238.15151473,8.2424242416,4232.48484806,4.1212121208,4238.66666624,12.3636363624,4292.24242381,461.57575753,4222.69696927,251.393939369,4182.5151511,8.2424242416,3484.48484814,12.3636363624,4236.60606018,8.2424242416,42.0,42.0,?
2017-06-30 14:06:45.237850,4232.48484806,8.2424242416,4232.48484806,4.1212121208,4215.99999958,74.1818181744,4227.33333291,4.1212121208,4225.27272685,0.0,4221.66666624,0.0,4227.33333291,8.2424242416,4231.96969655,4.1212121208,4240.7272723,12.3636363624,4302.54545412,461.57575753,4226.8181814,251.393939369,4180.45454504,8.2424242416,3484.99999965,12.3636363624,4244.84848442,8.2424242416,42.0,42.0,?
2017-06-30 14:06:45.244766,4235.06060564,8.2424242416,4229.39393897,4.1212121208,4208.78787837,74.1818181744,4227.33333291,4.1212121208,4225.27272685,0.0,4225.78787837,0.0,4239.18181776,8.2424242416,4235.57575715,4.1212121208,4242.27272685,12.3636363624,4291.21212078,461.57575753,4222.18181776,251.393939369,4176.84848443,8.2424242416,3487.06060571,12.3636363624,4237.63636321,8.2424242416,42.0,42.0,?
2017-06-30 14:06:45.252524,4231.96969655,8.2424242416,4228.87878746,4.1212121208,4219.60606018,74.1818181744,4228.36363594,4.1212121208,4230.93939352,0.0,4226.8181814,0.0,4229.39393897,8.2424242416,4230.424242,4.1212121208,4237.1212117,12.3636363624,4303.06060563,461.57575753,4231.96969655,251.393939369,4176.84848443,8.2424242416,3485.51515117,12.3636363624,4232.48484806,8.2424242416,42.0,42.0,?
2017-06-30 14:06:45.260469,4231.45454503,8.2424242416,4221.66666624,4.1212121208,4202.09090867,74.1818181744,4228.36363594,4.1212121208,4225.27272685,0.0,4226.8181814,0.0,4231.45454503,8.2424242416,4229.90909049,4.1212121208,4237.1212117,12.3636363624,4289.15151472,461.57575753,4219.60606018,251.393939369,4179.42424201,8.2424242416,3486.03030268,12.3636363624,4217.54545412,8.2424242416,42.0,42.0,?
2017-06-30 14:06:45.267503,4229.39393897,8.2424242416,4228.36363594,4.1212121208,4212.90909049,74.1818181744,4227.33333291,4.1212121208,4226.8181814,0.0,4226.8181814,0.0,4220.63636321,8.2424242416,4229.39393897,4.1212121208,4238.66666624,12.3636363624,4304.09090866,461.57575753,4236.60606018,251.393939369,4179.42424201,8.2424242416,3488.09090874,12.3636363624,4221.66666624,8.2424242416,42.0,42.0,?
2017-06-30 14:06:45.275718,4230.93939352,8.2424242416,4227.33333291,4.1212121208,4205.69696928,74.1818181744,4228.87878746,4.1212121208,4227.33333291,0.0,4229.90909049,0.0,4228.36363594,8.2424242416,4230.424242,4.1212121208,4241.75757533,12.3636363624,4290.69696927,461.57575753,4224.24242382,251.393939369,4179.42424201,8.2424242416,3486.5454542,12.3636363624,4217.03030261,8.2424242416,42.0,42.0,?
2017-06-30 14:06:45.283539,4232.99999958,8.2424242416,4226.30302988,4.1212121208,4213.424242,74.1818181744,4228.87878746,4.1212121208,4224.75757534,0.0,4223.7272723,0.0,4222.18181776,8.2424242416,4226.8181814,4.1212121208,4239.69696927,12.3636363624,4297.39393896,461.57575753,4223.21212079,251.393939369,4178.90909049,8.2424242416,3482.93939359,12.3636363624,4221.66666624,8.2424242416,42.0,42.0,?
2017-06-30 14:06:45.291719,4232.48484806,8.2424242416,4224.75757534,4.1212121208,4206.21212079,74.1818181744,4227.84848443,4.1212121208,4227.84848443,0.0,4225.27272685,0.0,4219.60606018,8.2424242416,4228.87878746,4.1212121208,4238.15151473,12.3636363624,4292.75757533,461.57575753,4222.18181776,251.393939369,4176.84848443,8.2424242416,3482.42424208,12.3636363624,4222.18181776,8.2424242416,42.0,42.0,?
2017-06-30 14:06:45.301204,4230.424242,8.2424242416,4226.8181814,4.1212121208,4203.63636322,74.1818181744,4227.84848443,4.1212121208,4229.90909049,0.0,4226.30302988,0.0,4218.06060564,8.2424242416,4227.84848443,4.1212121208,4237.63636321,12.3636363624,4298.93939351,461.57575753,4228.36363594,251.393939369,4176.33333292,8.2424242416,3485.51515117,12.3636363624,4226.30302988,8.2424242416,42.0,42.0,?
2017-06-30 14:06:45.307528,4230.93939352,8.2424242416,4229.39393897,4.1212121208,4201.57575716,74.1818181744,4228.36363594,4.1212121208,4230.424242,0.0,4226.30302988,0.0,4218.06060564,8.2424242416,4226.30302988,4.1212121208,4236.09090867,12.3636363624,4294.81818139,461.57575753,4218.57575715,251.393939369,4176.84848443,8.2424242416,3484.99999965,12.3636363624,4224.75757534,8.2424242416,42.0,42.0,?
2017-06-30 14:06:45.314495,4232.99999958,8.2424242416,4226.30302988,4.1212121208,4198.48484806,74.1818181744,4228.36363594,4.1212121208,4223.7272723,0.0,4223.21212079,0.0,4225.27272685,8.2424242416,4228.87878746,4.1212121208,4236.09090867,12.3636363624,4292.75757533,461.57575753,4220.1212117,251.393939369,4178.39393898,8.2424242416,3484.48484814,12.3636363624,4230.93939352,8.2424242416,42.0,42.0,?
2017-06-30 14:06:45.324590,4230.93939352,8.2424242416,4226.8181814,12.3636363624,4198.48484806,74.1818181744,4229.90909049,4.1212121208,4229.39393897,0.0,4223.7272723,0.0,4222.18181776,8.2424242416,4235.57575715,4.1212121208,4237.1212117,12.3636363624,4296.87878745,461.57575753,4224.75757534,251.393939369,4177.87878746,8.2424242416,3485.51515117,12.3636363624,4228.36363594,8.2424242416,42.0,42.0,?
2017-06-30 14:06:45.330499,4233.51515109,8.2424242416,4224.75757534,12.3636363624,4194.87878746,74.1818181744,4229.39393897,4.1212121208,4225.27272685,0.0,4223.21212079,0.0,4234.03030261,8.2424242416,4235.57575715,4.1212121208,4240.21212079,12.3636363624,4292.24242381,461.57575753,4219.60606018,251.393939369,4179.42424201,8.2424242416,3486.03030268,12.3636363624,4231.45454503,8.2424242416,42.0,42.0,?
2017-06-30 14:06:45.339814,4232.99999958,8.2424242416,4229.90909049,12.3636363624,4207.24242382,0.0,4227.84848443,4.1212121208,4227.84848443,0.0,4224.24242382,0.0,4227.33333291,8.2424242416,4229.39393897,4.1212121208,4237.1212117,12.3636363624,4292.24242381,461.57575753,4220.63636321,251.393939369,4177.36363595,8.2424242416,3481.39393905,12.3636363624,4234.03030261,8.2424242416,42.0,42.0,?
2017-06-30 14:06:45.346866,4231.96969655,8.2424242416,4227.84848443,12.3636363624,4197.45454503,0.0,4227.33333291,4.1212121208,4223.7272723,0.0,4226.8181814,0.0,4236.09090867,8.2424242416,4232.99999958,4.1212121208,4236.09090867,12.3636363624,4289.66666624,461.57575753,4223.21212079,251.393939369,4177.87878746,8.2424242416,3483.45454511,12.3636363624,4235.57575715,8.2424242416,42.0,42.0,?
2017-06-30 14:06:45.354548,4230.424242,8.2424242416,4233.51515109,12.3636363624,4213.93939352,0.0,4228.36363594,4.1212121208,4229.39393897,0.0,4226.30302988,0.0,4223.21212079,8.2424242416,4232.99999958,4.1212121208,4236.09090867,12.3636363624,4311.81818139,461.57575753,4237.1212117,251.393939369,4176.84848443,8.2424242416,3484.48484814,12.3636363624,4232.99999958,8.2424242416,42.0,42.0,?
2017-06-30 14:06:45.362508,4233.51515109,8.2424242416,4225.78787837,12.3636363624,4205.69696928,0.0,4228.36363594,4.1212121208,4225.78787837,0.0,4226.30302988,0.0,4231.96969655,8.2424242416,4231.96969655,4.1212121208,4239.18181776,12.3636363624,4296.87878745,461.57575753,4230.424242,251.393939369,4176.84848443,8.2424242416,3483.96969662,12.3636363624,4222.69696927,8.2424242416,42.0,42.0,?
2017-06-30 14:06:45.370540,4227.84848443,8.2424242416,4228.36363594,12.3636363624,4222.69696927,0.0,4226.8181814,4.1212121208,4229.90909049,0.0,4227.33333291,0.0,4218.57575715,156.60606059,4227.84848443,4.1212121208,4237.63636321,12.3636363624,4300.99999957,461.57575753,4234.03030261,251.393939369,4176.84848443,8.2424242416,3480.87878753,12.3636363624,4228.36363594,8.2424242416,42.0,42.0,?
2017-06-30 14:06:45.378516,4229.39393897,8.2424242416,4224.24242382,12.3636363624,4207.24242382,0.0,4225.27272685,4.1212121208,4225.27272685,0.0,4227.84848443,0.0,4229.39393897,156.60606059,4230.93939352,12.3636363624,4239.18181776,12.3636363624,4292.24242381,461.57575753,4214.45454503,251.393939369,4178.90909049,8.2424242416,3483.96969662,12.3636363624,4231.96969655,8.2424242416,42.0,42.0,?
2017-06-30 14:06:45.385722,4231.96969655,8.2424242416,4229.90909049,12.3636363624,4218.57575715,0.0,4227.33333291,4.1212121208,4228.36363594,0.0,4223.21212079,0.0,4219.60606018,156.60606059,4228.87878746,12.3636363624,4238.15151473,8.2424242416,4307.69696927,461.57575753,4224.24242382,251.393939369,4177.36363595,8.2424242416,3485.51515117,12.3636363624,4232.99999958,8.2424242416,42.0,42.0,?
2017-06-30 14:06:45.394474,4232.48484806,8.2424242416,4225.27272685,12.3636363624,4202.60606019,0.0,4228.87878746,4.1212121208,4223.7272723,0.0,4225.27272685,0.0,4228.87878746,156.60606059,4230.424242,12.3636363624,4239.69696927,8.2424242416,4291.7272723,8.2424242416,4219.09090867,251.393939369,4177.87878746,8.2424242416,3483.45454511,12.3636363624,4222.69696927,8.2424242416,42.0,42.0,?
2017-06-30 14:06:45.407281,4228.36363594,8.2424242416,4226.8181814,12.3636363624,4209.8181814,0.0,4228.87878746,4.1212121208,4226.30302988,0.0,4226.8181814,0.0,4219.60606018,156.60606059,4227.84848443,12.3636363624,4236.09090867,8.2424242416,4303.06060563,8.2424242416,4225.78787837,4.1212121208,4179.42424201,8.2424242416,3480.87878753,12.3636363624,4226.30302988,8.2424242416,42.0,42.0,?
2017-06-30 14:06:45.410336,4231.45454503,8.2424242416,4221.66666624,12.3636363624,4191.78787837,0.0,4228.87878746,4.1212121208,4225.27272685,0.0,4225.78787837,0.0,4231.96969655,156.60606059,4230.93939352,12.3636363624,4236.60606018,8.2424242416,4282.96969654,8.2424242416,4207.75757534,4.1212121208,4178.90909049,12.3636363624,3482.93939359,12.3636363624,4217.54545412,8.2424242416,42.0,42.0,?
2017-06-30 14:06:45.417848,4230.424242,8.2424242416,4226.30302988,12.3636363624,4202.09090867,0.0,4228.36363594,4.1212121208,4227.84848443,0.0,4221.66666624,0.0,4224.75757534,156.60606059,4229.90909049,12.3636363624,4236.09090867,8.2424242416,4293.27272684,8.2424242416,4214.96969655,4.1212121208,4176.84848443,12.3636363624,3483.45454511,12.3636363624,4220.63636321,8.2424242416,42.0,42.0,?
2017-06-30 14:06:45.425501,4227.84848443,8.2424242416,4227.84848443,12.3636363624,4193.33333291,0.0,4229.39393897,4.1212121208,4227.33333291,0.0,4227.33333291,0.0,4227.84848443,156.60606059,4234.03030261,12.3636363624,4238.15151473,8.2424242416,4293.27272684,8.2424242416,4212.39393897,4.1212121208,4175.8181814,12.3636363624,3482.93939359,12.3636363624,4225.27272685,8.2424242416,42.0,42.0,?
2017-06-30 14:06:45.433580,4230.424242,8.2424242416,4228.87878746,12.3636363624,4197.96969655,0.0,4228.87878746,4.1212121208,4226.30302988,0.0,4223.7272723,0.0,4230.424242,156.60606059,4234.03030261,12.3636363624,4237.1212117,8.2424242416,4297.39393896,8.2424242416,4220.63636321,12.3636363624,4178.39393898,12.3636363624,3488.60606026,12.3636363624,4238.15151473,8.2424242416,42.0,42.0,?
2017-06-30 14:06:45.440564,4232.99999958,8.2424242416,4229.90909049,12.3636363624,4199.5151511,0.0,4228.36363594,4.1212121208,4227.84848443,0.0,4221.66666624,0.0,4231.96969655,156.60606059,4232.99999958,12.3636363624,4232.99999958,8.2424242416,4290.69696927,8.2424242416,4219.60606018,12.3636363624,4180.45454504,12.3636363624,3489.63636329,12.3636363624,4236.60606018,8.2424242416,42.0,42.0,?
2017-06-30 14:06:45.449255,4231.96969655,8.2424242416,4230.424242,12.3636363624,4205.69696928,0.0,4227.84848443,4.1212121208,4223.7272723,0.0,4223.7272723,0.0,4229.39393897,156.60606059,4230.93939352,12.3636363624,4234.54545412,8.2424242416,4303.06060563,8.2424242416,4230.424242,12.3636363624,4179.93939352,12.3636363624,3484.99999965,12.3636363624,4240.7272723,8.2424242416,42.0,42.0,?
2017-06-30 14:06:45.456500,4229.39393897,8.2424242416,4229.90909049,12.3636363624,4207.75757534,0.0,4228.87878746,4.1212121208,4226.30302988,0.0,4225.78787837,0.0,4225.27272685,156.60606059,4231.45454503,12.3636363624,4239.69696927,8.2424242416,4301.51515109,8.2424242416,4230.424242,12.3636363624,4176.33333292,12.3636363624,3483.45454511,12.3636363624,4235.06060564,8.2424242416,42.0,42.0,?
2017-06-30 14:06:45.464667,4230.424242,8.2424242416,4228.87878746,12.3636363624,4209.30302988,0.0,4229.39393897,4.1212121208,4224.75757534,0.0,4221.66666624,0.0,4236.09090867,156.60606059,4233.51515109,12.3636363624,4240.21212079,8.2424242416,4293.27272684,8.2424242416,4228.87878746,12.3636363624,4178.90909049,12.3636363624,3486.5454542,12.3636363624,4236.60606018,8.2424242416,42.0,42.0,?
2017-06-30 14:06:45.472543,4229.39393897,8.2424242416,4229.39393897,12.3636363624,4215.99999958,0.0,4229.39393897,4.1212121208,4231.96969655,0.0,4224.24242382,0.0,4229.39393897,156.60606059,4236.60606018,12.3636363624,4235.57575715,8.2424242416,4295.3333329,8.2424242416,4225.27272685,12.3636363624,4180.45454504,12.3636363624,3483.45454511,12.3636363624,4231.96969655,8.2424242416,42.0,42.0,?
2017-06-30 14:06:45.480536,4230.424242,8.2424242416,4222.18181776,12.3636363624,4206.21212079,0.0,4229.39393897,4.1212121208,4227.33333291,0.0,4228.36363594,0.0,4232.48484806,156.60606059,4237.63636321,12.3636363624,4238.66666624,8.2424242416,4294.30302987,8.2424242416,4223.21212079,12.3636363624,4180.45454504,12.3636363624,3484.99999965,12.3636363624,4225.78787837,8.2424242416,42.0,42.0,?
2017-06-30 14:06:45.488875,4229.39393897,8.2424242416,4228.87878746,12.3636363624,4218.57575715,0.0,4228.87878746,4.1212121208,4229.90909049,0.0,4228.36363594,0.0,4221.66666624,156.60606059,4230.93939352,12.3636363624,4238.15151473,8.2424242416,4300.99999957,8.2424242416,4229.90909049,12.3636363624,4177.36363595,12.3636363624,3485.51515117,12.3636363624,4224.24242382,8.2424242416,42.0,42.0,?
2017-06-30 14:06:45.497219,4231.45454503,8.2424242416,4225.78787837,12.3636363624,4207.75757534,0.0,4227.84848443,4.1212121208,4223.7272723,0.0,4225.78787837,0.0,4229.90909049,156.60606059,4229.90909049,12.3636363624,4238.15151473,8.2424242416,4288.12121169,8.2424242416,4218.06060564,12.3636363624,4178.39393898,12.3636363624,3485.51515117,12.3636363624,4222.18181776,8.2424242416,42.0,42.0,?
2017-06-30 14:06:45.505437,4229.39393897,8.2424242416,4225.78787837,12.3636363624,4214.45454503,0.0,4228.87878746,4.1212121208,4229.90909049,0.0,4224.24242382,0.0,4211.87878746,156.60606059,4227.84848443,12.3636363624,4236.60606018,8.2424242416,4298.93939351,8.2424242416,4225.27272685,12.3636363624,4175.8181814,12.3636363624,3483.45454511,12.3636363624,4219.09090867,8.2424242416,42.0,42.0,?
2017-06-30 14:06:45.511516,4231.96969655,8.2424242416,4224.24242382,12.3636363624,4196.424242,0.0,4228.87878746,4.1212121208,4226.30302988,0.0,4226.8181814,0.0,4224.75757534,156.60606059,4231.45454503,12.3636363624,4239.18181776,8.2424242416,4290.69696927,8.2424242416,4221.66666624,12.3636363624,4177.87878746,12.3636363624,3485.51515117,12.3636363624,4220.1212117,8.2424242416,42.0,42.0,?
2017-06-30 14:06:45.519721,4230.424242,8.2424242416,4231.96969655,12.3636363624,4210.33333291,0.0,4227.33333291,4.1212121208,4229.90909049,0.0,4225.27272685,0.0,4218.57575715,156.60606059,4230.424242,12.3636363624,4235.57575715,8.2424242416,4303.06060563,8.2424242416,4229.90909049,12.3636363624,4177.87878746,12.3636363624,3486.5454542,12.3636363624,4228.36363594,8.2424242416,42.0,42.0,?
2017-06-30 14:06:45.527526,4230.93939352,8.2424242416,4222.18181776,12.3636363624,4198.48484806,0.0,4228.87878746,4.1212121208,4227.33333291,0.0,4223.7272723,0.0,4229.39393897,156.60606059,4230.93939352,12.3636363624,4236.60606018,8.2424242416,4284.51515109,8.2424242416,4218.57575715,12.3636363624,4177.36363595,12.3636363624,3485.51515117,12.3636363624,4221.15151473,8.2424242416,42.0,42.0,?
2017-06-30 14:06:45.535601,4229.90909049,8.2424242416,4225.78787837,12.3636363624,4209.8181814,0.0,4231.45454503,4.1212121208,4230.424242,0.0,4221.66666624,0.0,4224.75757534,156.60606059,4230.424242,12.3636363624,4236.60606018,8.2424242416,4295.3333329,8.2424242416,4228.36363594,12.3636363624,4176.84848443,12.3636363624,3481.39393905,12.3636363624,4230.93939352,8.2424242416,42.0,42.0,?
2017-06-30 14:06:45.543623,4231.96969655,8.2424242416,4227.33333291,12.3636363624,4194.36363594,0.0,4228.87878746,4.1212121208,4225.27272685,0.0,4223.21212079,0.0,4238.66666624,156.60606059,4236.09090867,12.3636363624,4239.69696927,8.2424242416,4289.15151472,8.2424242416,4216.51515109,12.3636363624,4177.36363595,12.3636363624,3482.42424208,12.3636363624,4236.09090867,8.2424242416,42.0,42.0,?
2017-06-30 14:06:45.552451,4231.45454503,8.2424242416,4231.45454503,12.3636363624,4208.78787837,0.0,4226.30302988,4.1212121208,4224.75757534,0.0,4221.15151473,0.0,4224.75757534,156.60606059,4231.96969655,12.3636363624,4237.63636321,8.2424242416,4307.18181775,8.2424242416,4225.78787837,12.3636363624,4176.33333292,12.3636363624,3485.51515117,12.3636363624,4238.15151473,8.2424242416,42.0,42.0,?
2017-06-30 14:06:45.559514,4232.99999958,8.2424242416,4225.27272685,12.3636363624,4195.90909049,0.0,4228.87878746,4.1212121208,4223.7272723,0.0,4226.8181814,0.0,4227.84848443,156.60606059,4232.48484806,12.3636363624,4237.1212117,8.2424242416,4289.66666624,8.2424242416,4219.60606018,12.3636363624,4177.87878746,12.3636363624,3485.51515117,12.3636363624,4221.15151473,8.2424242416,42.0,42.0,?
2017-06-30 14:06:45.567565,4229.39393897,8.2424242416,4229.39393897,12.3636363624,4207.75757534,0.0,4228.36363594,4.1212121208,4224.75757534,0.0,4228.36363594,0.0,4227.33333291,156.60606059,4232.99999958,12.3636363624,4237.1212117,8.2424242416,4302.54545412,8.2424242416,4235.57575715,12.3636363624,4178.39393898,12.3636363624,3484.48484814,12.3636363624,4229.39393897,8.2424242416,42.0,42.0,?
2017-06-30 14:06:45.576274,4227.84848443,8.2424242416,4228.87878746,12.3636363624,4212.39393897,0.0,4226.30302988,4.1212121208,4229.39393897,0.0,4229.39393897,0.0,4230.93939352,156.60606059,4232.48484806,12.3636363624,4238.66666624,8.2424242416,4304.60606018,8.2424242416,4230.93939352,12.3636363624,4175.8181814,12.3636363624,3485.51515117,12.3636363624,4229.39393897,8.2424242416,42.0,42.0,?
2017-06-30 14:06:45.582546,4229.39393897,8.2424242416,4226.8181814,12.3636363624,4218.06060564,0.0,4227.84848443,4.1212121208,4229.39393897,0.0,4227.33333291,0.0,4224.24242382,156.60606059,4226.8181814,12.3636363624,4235.57575715,8.2424242416,4308.21212078,8.2424242416,4234.03030261,12.3636363624,4178.39393898,12.3636363624,3486.03030268,12.3636363624,4225.78787837,8.2424242416,42.0,42.0,?
2017-06-30 14:06:45.592236,4228.87878746,8.2424242416,4228.36363594,12.3636363624,4212.39393897,0.0,4228.87878746,4.1212121208,4229.39393897,0.0,4228.36363594,0.0,4221.66666624,156.60606059,4230.424242,12.3636363624,4234.03030261,8.2424242416,4296.36363593,8.2424242416,4227.33333291,12.3636363624,4180.45454504,12.3636363624,3485.51515117,12.3636363624,4221.15151473,8.2424242416,42.0,42.0,?
2017-06-30 14:06:45.599729,4229.90909049,8.2424242416,4226.8181814,12.3636363624,4208.78787837,0.0,4226.8181814,4.1212121208,4227.33333291,0.0,4226.30302988,0.0,4222.18181776,156.60606059,4230.93939352,12.3636363624,4236.60606018,8.2424242416,4299.45454502,8.2424242416,4227.84848443,12.3636363624,4178.39393898,12.3636363624,3486.03030268,12.3636363624,4225.78787837,8.2424242416,42.0,42.0,?
2017-06-30 14:06:45.607471,4230.424242,8.2424242416,4223.21212079,12.3636363624,4204.15151473,0.0,4228.36363594,4.1212121208,4232.48484806,0.0,4227.84848443,0.0,4215.99999958,156.60606059,4226.8181814,12.3636363624,4236.09090867,8.2424242416,4295.84848442,8.2424242416,4220.63636321,12.3636363624,4173.75757534,12.3636363624,3484.48484814,12.3636363624,4219.09090867,8.2424242416,42.0,42.0,?
2017-06-30 14:06:45.614515,4229.90909049,8.2424242416,4220.63636321,12.3636363624,4199.5151511,0.0,4228.87878746,4.1212121208,4225.27272685,0.0,4225.78787837,0.0,4222.18181776,156.60606059,4228.36363594,12.3636363624,4236.09090867,8.2424242416,4289.66666624,8.2424242416,4213.424242,12.3636363624,4174.78787837,12.3636363624,3486.5454542,12.3636363624,4220.1212117,8.2424242416,42.0,42.0,?
2017-06-30 14:06:45.622513,4228.36363594,8.2424242416,4227.84848443,12.3636363624,4210.33333291,0.0,4228.36363594,4.1212121208,4225.78787837,0.0,4222.69696927,0.0,4217.54545412,156.60606059,4232.99999958,12.3636363624,4236.60606018,8.2424242416,4298.42424199,8.2424242416,4217.03030261,12.3636363624,4176.33333292,12.3636363624,3485.51515117,12.3636363624,4225.27272685,8.2424242416,42.0,42.0,?
2017-06-30 14:06:45.630815,4234.03030261,8.2424242416,4225.27272685,12.3636363624,4198.99999958,0.0,4229.90909049,4.1212121208,4222.69696927,0.0,4221.15151473,0.0,4234.54545412,156.60606059,4235.57575715,12.3636363624,4239.69696927,8.2424242416,4288.12121169,8.2424242416,4214.45454503,12.3636363624,4178.39393898,12.3636363624,3484.99999965,12.3636363624,4231.45454503,8.2424242416,42.0,42.0,?
2017-06-30 14:06:45.638512,4232.48484806,8.2424242416,4229.39393897,12.3636363624,4206.72727231,0.0,4230.93939352,4.1212121208,4228.87878746,0.0,4224.24242382,0.0,4226.8181814,156.60606059,4233.51515109,12.3636363624,4237.1212117,8.2424242416,4294.81818139,8.2424242416,4220.63636321,12.3636363624,4176.84848443,12.3636363624,3482.42424208,12.3636363624,4234.54545412,8.2424242416,42.0,42.0,?
2017-06-30 14:06:45.646687,4231.96969655,8.2424242416,4227.84848443,12.3636363624,4198.48484806,0.0,4228.87878746,4.1212121208,4223.7272723,0.0,4226.8181814,0.0,4235.57575715,156.60606059,4235.57575715,12.3636363624,4239.18181776,8.2424242416,4289.66666624,8.2424242416,4214.45454503,12.3636363624,4179.42424201,12.3636363624,3484.48484814,12.3636363624,4235.06060564,8.2424242416,42.0,42.0,?
2017-06-30 14:06:45.653734,4229.90909049,8.2424242416,4232.99999958,12.3636363624,4211.36363594,0.0,4228.87878746,4.1212121208,4230.93939352,0.0,4224.75757534,0.0,4220.1212117,156.60606059,4228.87878746,12.3636363624,4235.57575715,8.2424242416,4298.42424199,8.2424242416,4227.84848443,12.3636363624,4179.42424201,12.3636363624,3484.99999965,12.3636363624,4232.99999958,8.2424242416,42.0,42.0,?
2017-06-30 14:06:45.661496,4231.96969655,8.2424242416,4227.84848443,12.3636363624,4197.96969655,0.0,4228.87878746,4.1212121208,4227.84848443,0.0,4225.78787837,0.0,4233.51515109,156.60606059,4228.36363594,12.3636363624,4235.06060564,8.2424242416,4287.09090866,8.2424242416,4226.8181814,12.3636363624,4178.39393898,12.3636363624,3486.5454542,12.3636363624,4230.93939352,8.2424242416,42.0,42.0,?
2017-06-30 14:06:45.669852,4228.87878746,8.2424242416,4234.54545412,12.3636363624,4224.24242382,0.0,4226.8181814,4.1212121208,4229.39393897,0.0,4225.27272685,0.0,4227.84848443,156.60606059,4231.96969655,12.3636363624,4236.09090867,8.2424242416,4312.3333329,8.2424242416,4237.1212117,12.3636363624,4177.36363595,12.3636363624,3485.51515117,12.3636363624,4244.33333291,8.2424242416,42.0,42.0,?
2017-06-30 14:06:45.677521,4230.424242,8.2424242416,4228.36363594,12.3636363624,4217.54545412,0.0,4226.8181814,4.1212121208,4224.75757534,0.0,4228.36363594,0.0,4232.99999958,156.60606059,4236.60606018,12.3636363624,4239.18181776,8.2424242416,4303.06060563,8.2424242416,4224.24242382,12.3636363624,4177.87878746,12.3636363624,3488.09090874,12.3636363624,4232.99999958,8.2424242416,42.0,42.0,?
2017-06-30 14:06:45.686377,4231.45454503,8.2424242416,4231.96969655,12.3636363624,4226.30302988,0.0,4227.84848443,4.1212121208,4228.36363594,0.0,4229.90909049,0.0,4218.57575715,156.60606059,4230.93939352,12.3636363624,4234.54545412,8.2424242416,4303.57575715,8.2424242416,4233.51515109,12.3636363624,4175.8181814,12.3636363624,3487.06060571,12.3636363624,4226.30302988,8.2424242416,42.0,42.0,?
2017-06-30 14:06:45.694227,4230.424242,8.2424242416,4228.36363594,12.3636363624,4206.72727231,0.0,4228.36363594,4.1212121208,4225.78787837,0.0,4229.90909049,0.0,4227.33333291,156.60606059,4232.48484806,12.3636363624,4236.09090867,8.2424242416,4286.06060563,8.2424242416,4216.51515109,12.3636363624,4175.30302989,12.3636363624,3486.5454542,12.3636363624,4220.63636321,8.2424242416,42.0,42.0,?
2017-06-30 14:06:45.701508,4225.78787837,8.2424242416,4226.30302988,12.3636363624,4213.93939352,0.0,4228.36363594,4.1212121208,4228.87878746,0.0,4223.7272723,0.0,4214.96969655,156.60606059,4230.424242,12.3636363624,4234.54545412,8.2424242416,4306.66666624,8.2424242416,4222.18181776,12.3636363624,4178.90909049,12.3636363624,3487.06060571,12.3636363624,4223.7272723,8.2424242416,42.0,42.0,?
2017-06-30 14:06:45.709238,4229.39393897,8.2424242416,4223.7272723,12.3636363624,4204.15151473,0.0,4228.87878746,4.1212121208,4228.36363594,0.0,4226.8181814,0.0,4219.09090867,156.60606059,4230.424242,12.3636363624,4233.51515109,8.2424242416,4292.75757533,8.2424242416,4215.48484806,12.3636363624,4180.96969655,12.3636363624,3486.03030268,12.3636363624,4216.51515109,8.2424242416,42.0,42.0,?
2017-06-30 14:06:45.718798,4232.48484806,8.2424242416,4231.45454503,12.3636363624,4209.8181814,0.0,4229.90909049,4.1212121208,4225.78787837,0.0,4226.30302988,0.0,4220.1212117,156.60606059,4228.87878746,12.3636363624,4235.06060564,8.2424242416,4295.3333329,8.2424242416,4221.15151473,12.3636363624,4179.42424201,12.3636363624,3483.96969662,12.3636363624,4224.24242382,8.2424242416,42.0,42.0,?
2017-06-30 14:06:45.724531,4229.39393897,8.2424242416,4230.93939352,12.3636363624,4199.5151511,0.0,4230.424242,4.1212121208,4227.84848443,0.0,4224.24242382,0.0,4225.27272685,156.60606059,4231.45454503,12.3636363624,4238.66666624,8.2424242416,4291.7272723,8.2424242416,4214.96969655,12.3636363624,4176.84848443,12.3636363624,3482.42424208,12.3636363624,4222.69696927,8.2424242416,42.0,42.0,?
2017-06-30 14:06:45.732537,4229.39393897,8.2424242416,4227.33333291,12.3636363624,4202.60606019,0.0,4228.36363594,4.1212121208,4227.33333291,0.0,4219.60606018,0.0,4226.8181814,156.60606059,4230.424242,12.3636363624,4236.09090867,8.2424242416,4297.90909048,8.2424242416,4219.60606018,12.3636363624,4175.8181814,12.3636363624,3482.42424208,12.3636363624,4229.39393897,8.2424242416,42.0,42.0,?
2017-06-30 14:06:45.740504,4232.99999958,8.2424242416,4228.87878746,12.3636363624,4205.18181776,0.0,4229.39393897,4.1212121208,4228.36363594,0.0,4223.21212079,0.0,4225.78787837,156.60606059,4229.90909049,12.3636363624,4234.03030261,8.2424242416,4288.12121169,8.2424242416,4217.54545412,12.3636363624,4174.27272686,12.3636363624,3482.93939359,12.3636363624,4230.424242,8.2424242416,42.0,42.0,?
2017-06-30 14:06:45.748501,4233.51515109,8.2424242416,4228.87878746,12.3636363624,4204.66666625,0.0,4230.93939352,4.1212121208,4225.27272685,0.0,4223.7272723,0.0,4231.96969655,156.60606059,4230.424242,12.3636363624,4238.66666624,8.2424242416,4288.63636321,8.2424242416,4223.7272723,12.3636363624,4177.87878746,12.3636363624,3486.5454542,12.3636363624,4238.66666624,8.2424242416,42.0,42.0,?
2017-06-30 14:06:45.756554,4228.36363594,8.2424242416,4230.93939352,12.3636363624,4209.8181814,0.0,4228.36363594,4.1212121208,4229.90909049,0.0,4225.27272685,0.0,4226.30302988,156.60606059,4232.99999958,12.3636363624,4239.69696927,8.2424242416,4294.30302987,8.2424242416,4224.24242382,12.3636363624,4177.87878746,12.3636363624,3485.51515117,12.3636363624,4238.66666624,8.2424242416,42.0,42.0,?
2017-06-30 14:06:45.764874,4227.84848443,8.2424242416,4227.84848443,12.3636363624,4208.27272685,0.0,4227.33333291,4.1212121208,4224.75757534,0.0,4225.27272685,0.0,4230.93939352,156.60606059,4235.57575715,12.3636363624,4239.69696927,8.2424242416,4293.78787836,8.2424242416,4221.66666624,12.3636363624,4177.36363595,12.3636363624,3485.51515117,12.3636363624,4235.57575715,8.2424242416,42.0,42.0,?
2017-06-30 14:06:45.772886,4227.33333291,8.2424242416,4230.424242,12.3636363624,4213.93939352,0.0,4229.90909049,4.1212121208,4227.33333291,0.0,4227.84848443,0.0,4224.75757534,156.60606059,4232.99999958,12.3636363624,4237.63636321,8.2424242416,4304.09090866,8.2424242416,4230.93939352,12.3636363624,4177.36363595,12.3636363624,3486.03030268,12.3636363624,4227.84848443,8.2424242416,42.0,42.0,?
2017-06-30 14:06:45.779629,4229.39393897,8.2424242416,4227.33333291,12.3636363624,4198.48484806,0.0,4228.36363594,4.1212121208,4222.18181776,0.0,4229.90909049,0.0,4239.18181776,156.60606059,4232.48484806,12.3636363624,4240.7272723,8.2424242416,4295.3333329,8.2424242416,4231.45454503,12.3636363624,4178.90909049,12.3636363624,3487.57575723,12.3636363624,4226.8181814,8.2424242416,42.0,42.0,?
2017-06-30 14:06:45.787500,4226.8181814,8.2424242416,4232.99999958,12.3636363624,4215.48484806,0.0,4227.33333291,4.1212121208,4230.93939352,0.0,4228.87878746,0.0,4223.21212079,156.60606059,4229.39393897,12.3636363624,4238.15151473,8.2424242416,4302.54545412,8.2424242416,4233.51515109,12.3636363624,4176.33333292,12.3636363624,3485.51515117,12.3636363624,4227.84848443,8.2424242416,42.0,42.0,?
2017-06-30 14:06:45.795509,4227.33333291,8.2424242416,4224.75757534,12.3636363624,4204.66666625,0.0,4231.96969655,4.1212121208,4229.39393897,0.0,4229.90909049,0.0,4223.21212079,156.60606059,4228.36363594,12.3636363624,4237.63636321,8.2424242416,4294.81818139,8.2424242416,4226.30302988,12.3636363624,4178.39393898,12.3636363624,3486.5454542,12.3636363624,4217.03030261,8.2424242416,42.0,42.0,?
2017-06-30 14:06:45.803886,4228.36363594,8.2424242416,4229.39393897,12.3636363624,4215.48484806,0.0,4231.45454503,4.1212121208,4231.45454503,0.0,4228.36363594,0.0,4210.84848443,156.60606059,4226.8181814,12.3636363624,4236.60606018,8.2424242416,4308.7272723,8.2424242416,4239.18181776,12.3636363624,4178.39393898,12.3636363624,3486.5454542,12.3636363624,4219.09090867,8.2424242416,42.0,42.0,?
2017-06-30 14:06:45.811520,4232.48484806,8.2424242416,4229.39393897,12.3636363624,4201.57575716,0.0,4227.33333291,4.1212121208,4225.27272685,0.0,4227.33333291,0.0,4223.7272723,156.60606059,4229.39393897,12.3636363624,4239.18181776,8.2424242416,4291.21212078,8.2424242416,4224.24242382,12.3636363624,4177.36363595,12.3636363624,3485.51515117,12.3636363624,4223.21212079,8.2424242416,42.0,42.0,?
2017-06-30 14:06:45.819900,4228.87878746,8.2424242416,4234.03030261,12.3636363624,4215.48484806,0.0,4227.33333291,4.1212121208,4230.424242,0.0,4225.78787837,0.0,4215.48484806,156.60606059,4225.78787837,12.3636363624,4235.57575715,8.2424242416,4302.0303026,8.2424242416,4226.8181814,12.3636363624,4175.30302989,12.3636363624,3483.45454511,12.3636363624,4230.93939352,8.2424242416,42.0,42.0,?
2017-06-30 14:06:45.827922,4230.424242,8.2424242416,4227.33333291,12.3636363624,4202.09090867,0.0,4227.33333291,4.1212121208,4227.33333291,0.0,4227.33333291,0.0,4230.424242,156.60606059,4228.36363594,12.3636363624,4235.57575715,8.2424242416,4288.12121169,8.2424242416,4210.84848443,12.3636363624,4178.39393898,12.3636363624,3486.03030268,12.3636363624,4224.75757534,8.2424242416,42.0,42.0,?
2017-06-30 14:06:45.836406,4231.45454503,8.2424242416,4226.30302988,0.0,4194.36363594,0.0,4230.424242,4.1212121208,4224.24242382,0.0,4224.24242382,0.0,4220.1212117,156.60606059,4235.06060564,12.3636363624,4237.1212117,8.2424242416,4286.57575715,8.2424242416,4215.99999958,12.3636363624,4176.84848443,12.3636363624,3487.06060571,12.3636363624,4224.24242382,8.2424242416,42.0,42.0,?
2017-06-30 14:06:45.847251,4231.45454503,8.2424242416,4226.30302988,0.0,4194.36363594,0.0,4230.424242,4.1212121208,4224.24242382,0.0,4223.21212079,0.0,4234.54545412,156.60606059,4235.06060564,12.3636363624,4237.1212117,8.2424242416,4286.57575715,8.2424242416,4211.36363594,12.3636363624,4176.84848443,12.3636363624,3484.99999965,12.3636363624,4225.78787837,8.2424242416,42.0,42.0,?
2017-06-30 14:06:45.850637,4230.93939352,8.2424242416,4228.87878746,0.0,4200.03030261,107.151515141,4231.96969655,4.1212121208,4224.24242382,0.0,4223.21212079,0.0,4234.54545412,156.60606059,4233.51515109,12.3636363624,4238.15151473,8.2424242416,4296.87878745,8.2424242416,4222.69696927,12.3636363624,4176.84848443,12.3636363624,3480.36363602,12.3636363624,4239.69696927,8.2424242416,42.0,42.0,?
2017-06-30 14:06:45.859234,4232.99999958,8.2424242416,4226.8181814,0.0,4188.18181776,107.151515141,4229.90909049,0.0,4225.78787837,0.0,4228.36363594,0.0,4232.48484806,156.60606059,4234.03030261,12.3636363624,4240.21212079,8.2424242416,4288.12121169,8.2424242416,4212.90909049,12.3636363624,4179.42424201,12.3636363624,3480.36363602,12.3636363624,4228.87878746,8.2424242416,42.0,42.0,?
2017-06-30 14:06:45.866629,4229.90909049,8.2424242416,4231.45454503,0.0,4201.06060564,107.151515141,4228.87878746,0.0,4227.33333291,8.2424242416,4225.27272685,0.0,4225.27272685,156.60606059,4234.03030261,12.3636363624,4239.69696927,8.2424242416,4301.51515109,8.2424242416,4227.33333291,12.3636363624,4178.39393898,12.3636363624,3486.03030268,12.3636363624,4232.48484806,8.2424242416,42.0,42.0,?
2017-06-30 14:06:45.875469,4226.30302988,8.2424242416,4232.48484806,0.0,4209.8181814,107.151515141,4229.90909049,0.0,4230.424242,8.2424242416,4224.75757534,4.1212121208,4229.39393897,156.60606059,4234.54545412,12.3636363624,4238.15151473,8.2424242416,4299.45454502,8.2424242416,4232.48484806,12.3636363624,4174.78787837,12.3636363624,3486.5454542,12.3636363624,4237.1212117,8.2424242416,42.0,42.0,?
2017-06-30 14:06:45.882508,4225.78787837,8.2424242416,4231.45454503,0.0,4217.03030261,107.151515141,4228.87878746,0.0,4226.30302988,8.2424242416,4226.30302988,4.1212121208,4229.90909049,0.0,4229.39393897,12.3636363624,4237.63636321,8.2424242416,4300.48484805,8.2424242416,4239.69696927,12.3636363624,4177.36363595,12.3636363624,3485.51515117,12.3636363624,4239.18181776,8.2424242416,42.0,42.0,?
2017-06-30 14:06:45.890511,4226.30302988,8.2424242416,4231.96969655,0.0,4217.03030261,107.151515141,4227.84848443,0.0,4227.33333291,8.2424242416,4228.87878746,4.1212121208,4225.27272685,0.0,4230.93939352,4.1212121208,4237.1212117,8.2424242416,4299.45454502,8.2424242416,4235.57575715,12.3636363624,4178.90909049,12.3636363624,3485.51515117,12.3636363624,4229.90909049,8.2424242416,42.0,42.0,?
2017-06-30 14:06:45.898518,4228.87878746,8.2424242416,4228.36363594,0.0,4210.33333291,107.151515141,4226.8181814,0.0,4225.27272685,8.2424242416,4227.84848443,4.1212121208,4232.48484806,0.0,4231.96969655,4.1212121208,4236.60606018,12.3636363624,4302.0303026,8.2424242416,4232.48484806,12.3636363624,4178.90909049,12.3636363624,3486.5454542,12.3636363624,4230.424242,8.2424242416,42.0,42.0,?
2017-06-30 14:06:45.905525,4229.90909049,8.2424242416,4230.424242,0.0,4209.30302988,107.151515141,4226.8181814,0.0,4230.424242,8.2424242416,4230.424242,4.1212121208,4222.18181776,0.0,4227.84848443,4.1212121208,4235.06060564,12.3636363624,4301.51515109,494.545454496,4225.78787837,12.3636363624,4175.30302989,12.3636363624,3482.93939359,12.3636363624,4222.18181776,8.2424242416,42.0,42.0,?
2017-06-30 14:06:45.913853,4232.48484806,8.2424242416,4225.27272685,0.0,4201.57575716,107.151515141,4227.84848443,0.0,4224.75757534,8.2424242416,4228.87878746,4.1212121208,4224.75757534,0.0,4227.33333291,4.1212121208,4237.63636321,12.3636363624,4294.30302987,494.545454496,4219.60606018,284.363636335,4176.33333292,12.3636363624,3482.93939359,12.3636363624,4216.51515109,8.2424242416,42.0,42.0,?
2017-06-30 14:06:45.922009,4229.90909049,8.2424242416,4228.87878746,0.0,4211.87878746,107.151515141,4227.84848443,0.0,4229.90909049,8.2424242416,4227.33333291,4.1212121208,4220.1212117,0.0,4228.87878746,4.1212121208,4234.54545412,12.3636363624,4298.93939351,494.545454496,4225.78787837,284.363636335,4176.84848443,8.2424242416,3483.96969662,12.3636363624,4221.66666624,8.2424242416,42.0,42.0,?
2017-06-30 14:06:45.931224,4232.99999958,8.2424242416,4226.30302988,0.0,4196.424242,107.151515141,4229.39393897,0.0,4228.36363594,8.2424242416,4227.84848443,4.1212121208,4233.51515109,0.0,4230.93939352,4.1212121208,4232.99999958,12.3636363624,4283.48484806,494.545454496,4213.424242,284.363636335,4176.84848443,8.2424242416,3486.5454542,12.3636363624,4225.27272685,8.2424242416,42.0,42.0,?
2017-06-30 14:06:45.938028,4231.96969655,8.2424242416,4229.90909049,0.0,4205.18181776,107.151515141,4229.39393897,0.0,4232.48484806,8.2424242416,4225.78787837,4.1212121208,4215.48484806,0.0,4227.84848443,4.1212121208,4231.45454503,12.3636363624,4294.81818139,506.909090858,4214.96969655,284.363636335,4177.36363595,8.2424242416,3484.99999965,12.3636363624,4224.75757534,8.2424242416,42.0,42.0,?
2017-06-30 14:06:45.945493,4231.45454503,8.2424242416,4222.69696927,0.0,4194.36363594,107.151515141,4227.84848443,0.0,4223.7272723,8.2424242416,4223.7272723,4.1212121208,4227.84848443,0.0,4230.424242,4.1212121208,4237.1212117,12.3636363624,4284.51515109,506.909090858,4211.36363594,292.606060577,4180.96969655,8.2424242416,3484.99999965,12.3636363624,4228.87878746,8.2424242416,42.0,42.0,?
2017-06-30 14:06:45.955443,4228.36363594,8.2424242416,4231.96969655,0.0,4210.84848443,107.151515141,4228.36363594,0.0,4227.33333291,8.2424242416,4220.63636321,4.1212121208,4224.24242382,0.0,4228.36363594,4.1212121208,4236.09090867,12.3636363624,4297.39393896,506.909090858,4228.87878746,292.606060577,4178.90909049,8.2424242416,3487.57575723,12.3636363624,4240.21212079,8.2424242416,42.0,42.0,?
2017-06-30 14:06:45.961590,4231.96969655,8.2424242416,4230.93939352,0.0,4197.96969655,107.151515141,4230.424242,0.0,4225.78787837,8.2424242416,4224.24242382,4.1212121208,4233.51515109,0.0,4230.93939352,4.1212121208,4236.60606018,12.3636363624,4289.66666624,506.909090858,4220.1212117,292.606060577,4177.36363595,8.2424242416,3490.66666632,12.3636363624,4232.48484806,8.2424242416,42.0,42.0,?
2017-06-30 14:06:45.971297,4231.45454503,8.2424242416,4231.96969655,0.0,4211.36363594,107.151515141,4230.424242,0.0,4230.424242,8.2424242416,4226.30302988,4.1212121208,4218.57575715,0.0,4229.39393897,4.1212121208,4237.1212117,12.3636363624,4300.99999957,506.909090858,4226.30302988,292.606060577,4177.87878746,8.2424242416,3487.06060571,12.3636363624,4231.45454503,8.2424242416,42.0,42.0,?
2017-06-30 14:06:45.976533,4231.96969655,8.2424242416,4227.84848443,0.0,4201.57575716,107.151515141,4228.87878746,0.0,4227.33333291,8.2424242416,4229.39393897,4.1212121208,4232.99999958,0.0,4232.99999958,4.1212121208,4239.69696927,12.3636363624,4285.54545412,506.909090858,4223.21212079,292.606060577,4179.42424201,8.2424242416,3484.99999965,12.3636363624,4233.51515109,8.2424242416,42.0,42.0,?
2017-06-30 14:06:45.985361,4227.84848443,8.2424242416,4234.03030261,0.0,4214.96969655,107.151515141,4226.8181814,0.0,4229.90909049,8.2424242416,4226.8181814,4.1212121208,4230.424242,0.0,4232.99999958,4.1212121208,4236.60606018,12.3636363624,4302.54545412,506.909090858,4237.63636321,292.606060577,4179.42424201,8.2424242416,3486.5454542,12.3636363624,4240.7272723,8.2424242416,42.0,42.0,?
2017-06-30 14:06:45.992658,4225.78787837,8.2424242416,4226.8181814,0.0,4196.93939352,107.151515141,4226.30302988,0.0,4229.39393897,8.2424242416,4229.90909049,4.1212121208,4231.96969655,0.0,4234.54545412,4.1212121208,4237.1212117,12.3636363624,4291.7272723,506.909090858,4222.18181776,292.606060577,4179.42424201,8.2424242416,3487.57575723,12.3636363624,4223.21212079,8.2424242416,42.0,42.0,?
2017-06-30 14:06:46.000661,4224.75757534,8.2424242416,4227.33333291,0.0,4206.21212079,107.151515141,4227.33333291,0.0,4228.36363594,8.2424242416,4228.87878746,4.1212121208,4222.69696927,0.0,4231.45454503,4.1212121208,4237.1212117,12.3636363624,4300.48484805,506.909090858,4230.424242,292.606060577,4178.39393898,8.2424242416,3486.03030268,12.3636363624,4223.7272723,8.2424242416,42.0,42.0,?
2017-06-30 14:06:46.008516,4225.27272685,8.2424242416,4227.33333291,0.0,4207.75757534,107.151515141,4229.90909049,0.0,4226.30302988,8.2424242416,4227.33333291,4.1212121208,4224.24242382,0.0,4231.96969655,4.1212121208,4237.63636321,12.3636363624,4294.81818139,506.909090858,4227.84848443,292.606060577,4177.87878746,8.2424242416,3485.51515117,12.3636363624,4220.1212117,8.2424242416,42.0,42.0,?
2017-06-30 14:06:46.016806,4225.27272685,8.2424242416,4226.8181814,0.0,4211.36363594,107.151515141,4230.93939352,0.0,4226.30302988,8.2424242416,4224.24242382,4.1212121208,4215.48484806,0.0,4227.33333291,4.1212121208,4237.63636321,12.3636363624,4303.57575715,506.909090858,4235.06060564,292.606060577,4180.45454504,8.2424242416,3487.57575723,12.3636363624,4221.66666624,8.2424242416,42.0,42.0,?
2017-06-30 14:06:46.025019,4227.33333291,8.2424242416,4228.87878746,0.0,4205.18181776,107.151515141,4229.39393897,0.0,4230.424242,8.2424242416,4228.36363594,4.1212121208,4215.48484806,0.0,4228.36363594,4.1212121208,4239.69696927,12.3636363624,4297.90909048,506.909090858,4229.90909049,292.606060577,4180.45454504,8.2424242416,3489.12121177,12.3636363624,4222.18181776,8.2424242416,42.0,42.0,?
2017-06-30 14:06:46.032710,4228.87878746,8.2424242416,4230.424242,0.0,4205.18181776,107.151515141,4227.33333291,0.0,4224.24242382,8.2424242416,4224.24242382,4.1212121208,4225.78787837,0.0,4230.424242,4.1212121208,4239.69696927,12.3636363624,4295.3333329,506.909090858,4222.69696927,292.606060577,4178.90909049,8.2424242416,3488.09090874,12.3636363624,4231.96969655,8.2424242416,42.0,42.0,?
2017-06-30 14:06:46.040484,4229.39393897,8.2424242416,4229.39393897,0.0,4203.63636322,107.151515141,4227.84848443,0.0,4226.8181814,8.2424242416,4223.7272723,4.1212121208,4222.69696927,0.0,4230.93939352,4.1212121208,4237.1212117,12.3636363624,4287.60606018,506.909090858,4214.96969655,292.606060577,4178.90909049,8.2424242416,3485.51515117,12.3636363624,4224.24242382,8.2424242416,42.0,42.0,?
2017-06-30 14:06:46.047505,4234.03030261,8.2424242416,4226.8181814,0.0,4197.96969655,107.151515141,4227.33333291,0.0,4225.27272685,8.2424242416,4224.24242382,4.1212121208,4228.36363594,0.0,4231.45454503,4.1212121208,4237.63636321,12.3636363624,4287.09090866,506.909090858,4220.1212117,292.606060577,4181.48484807,8.2424242416,3486.03030268,12.3636363624,4223.21212079,8.2424242416,42.0,42.0,?
2017-06-30 14:06:46.057245,4232.99999958,8.2424242416,4232.48484806,0.0,4208.78787837,107.151515141,4228.87878746,0.0,4229.39393897,8.2424242416,4225.78787837,4.1212121208,4224.75757534,0.0,4231.45454503,4.1212121208,4237.1212117,12.3636363624,4294.81818139,506.909090858,4221.66666624,292.606060577,4180.96969655,8.2424242416,3484.48484814,12.3636363624,4229.90909049,8.2424242416,42.0,42.0,?
2017-06-30 14:06:46.063500,4232.99999958,8.2424242416,4227.84848443,0.0,4201.06060564,107.151515141,4230.424242,0.0,4221.66666624,8.2424242416,4227.84848443,4.1212121208,4236.09090867,0.0,4234.54545412,4.1212121208,4237.63636321,12.3636363624,4282.45454503,506.909090858,4209.8181814,292.606060577,4180.96969655,8.2424242416,3484.99999965,12.3636363624,4236.09090867,8.2424242416,42.0,42.0,?
2017-06-30 14:06:46.071513,4230.424242,8.2424242416,4230.93939352,0.0,4206.21212079,107.151515141,4227.84848443,0.0,4226.30302988,8.2424242416,4229.90909049,4.1212121208,4224.75757534,0.0,4234.03030261,4.1212121208,4235.57575715,12.3636363624,4290.69696927,506.909090858,4219.60606018,292.606060577,4177.87878746,8.2424242416,3484.99999965,12.3636363624,4236.09090867,8.2424242416,42.0,42.0,?
2017-06-30 14:06:46.079612,4229.90909049,8.2424242416,4229.39393897,0.0,4189.72727231,107.151515141,4225.27272685,0.0,4222.69696927,8.2424242416,4228.36363594,4.1212121208,4236.60606018,0.0,4233.51515109,4.1212121208,4239.69696927,12.3636363624,4293.78787836,506.909090858,4227.33333291,292.606060577,4175.8181814,8.2424242416,3487.06060571,12.3636363624,4233.51515109,8.2424242416,42.0,42.0,?
2017-06-30 14:06:46.087601,4227.33333291,8.2424242416,4235.57575715,0.0,4209.8181814,107.151515141,4229.39393897,0.0,4227.84848443,8.2424242416,4225.27272685,4.1212121208,4225.78787837,0.0,4230.424242,4.1212121208,4239.18181776,12.3636363624,4310.78787836,506.909090858,4239.18181776,292.606060577,4174.27272686,8.2424242416,3484.99999965,12.3636363624,4237.1212117,8.2424242416,42.0,42.0,?
2017-06-30 14:06:46.095536,4229.39393897,8.2424242416,4231.45454503,0.0,4203.63636322,107.151515141,4231.96969655,0.0,4223.7272723,8.2424242416,4227.33333291,4.1212121208,4231.96969655,0.0,4234.03030261,4.1212121208,4240.21212079,12.3636363624,4292.24242381,506.909090858,4227.33333291,292.606060577,4176.33333292,8.2424242416,3484.99999965,12.3636363624,4227.84848443,8.2424242416,42.0,42.0,?
2017-06-30 14:06:46.103517,4226.8181814,8.2424242416,4236.09090867,0.0,4220.63636321,107.151515141,4229.39393897,0.0,4228.36363594,8.2424242416,4227.33333291,4.1212121208,4215.99999958,0.0,4228.87878746,4.1212121208,4237.1212117,12.3636363624,4305.63636321,506.909090858,4239.69696927,292.606060577,4177.36363595,8.2424242416,3486.03030268,12.3636363624,4226.8181814,8.2424242416,42.0,42.0,?
2017-06-30 14:06:46.110693,4229.90909049,8.2424242416,4226.30302988,0.0,4206.72727231,107.151515141,4227.84848443,0.0,4226.8181814,8.2424242416,4229.39393897,4.1212121208,4227.33333291,0.0,4229.39393897,4.1212121208,4237.63636321,12.3636363624,4300.99999957,506.909090858,4232.99999958,292.606060577,4178.39393898,8.2424242416,3487.57575723,12.3636363624,4222.69696927,8.2424242416,42.0,42.0,?
2017-06-30 14:06:46.118499,4228.87878746,8.2424242416,4226.8181814,0.0,4215.99999958,107.151515141,4227.84848443,0.0,4228.36363594,8.2424242416,4229.39393897,4.1212121208,4222.69696927,0.0,4230.93939352,4.1212121208,4238.15151473,12.3636363624,4310.27272684,506.909090858,4238.66666624,292.606060577,4176.33333292,8.2424242416,3484.99999965,12.3636363624,4226.30302988,8.2424242416,42.0,42.0,?
2017-06-30 14:06:46.126634,4229.90909049,8.2424242416,4224.24242382,0.0,4202.60606019,107.151515141,4227.84848443,0.0,4224.24242382,8.2424242416,4230.93939352,4.1212121208,4229.90909049,0.0,4232.48484806,4.1212121208,4239.18181776,12.3636363624,4283.48484806,506.909090858,4213.424242,292.606060577,4177.87878746,8.2424242416,3483.96969662,12.3636363624,4218.57575715,8.2424242416,42.0,42.0,?
2017-06-30 14:06:46.134545,4231.96969655,8.2424242416,4224.75757534,0.0,4210.84848443,107.151515141,4229.39393897,0.0,4230.424242,8.2424242416,4227.84848443,4.1212121208,4211.36363594,0.0,4226.30302988,4.1212121208,4235.06060564,12.3636363624,4291.7272723,506.909090858,4215.48484806,292.606060577,4177.87878746,8.2424242416,3486.03030268,12.3636363624,4214.45454503,8.2424242416,42.0,42.0,?
2017-06-30 14:06:46.145287,4233.51515109,8.2424242416,4222.18181776,0.0,4194.36363594,107.151515141,4227.84848443,0.0,4231.45454503,8.2424242416,4226.30302988,4.1212121208,4221.15151473,0.0,4231.45454503,4.1212121208,4236.60606018,12.3636363624,4283.48484806,506.909090858,4212.39393897,292.606060577,4175.30302989,8.2424242416,3486.03030268,12.3636363624,4213.424242,8.2424242416,42.0,42.0,?
2017-06-30 14:06:46.150525,4228.36363594,8.2424242416,4229.90909049,0.0,4203.1212117,107.151515141,4225.78787837,0.0,4226.8181814,8.2424242416,4222.18181776,4.1212121208,4228.36363594,0.0,4231.45454503,4.1212121208,4239.18181776,12.3636363624,4294.30302987,506.909090858,4224.24242382,292.606060577,4175.8181814,8.2424242416,3484.48484814,12.3636363624,4230.93939352,8.2424242416,42.0,42.0,?
2017-06-30 14:06:46.159600,4227.84848443,8.2424242416,4230.424242,0.0,4200.54545413,107.151515141,4228.87878746,0.0,4224.75757534,8.2424242416,4224.24242382,4.1212121208,4230.424242,0.0,4229.90909049,4.1212121208,4238.66666624,12.3636363624,4290.69696927,506.909090858,4220.1212117,292.606060577,4178.39393898,8.2424242416,3486.5454542,12.3636363624,4228.36363594,8.2424242416,42.0,42.0,?
2017-06-30 14:06:46.166509,4231.45454503,8.2424242416,4229.90909049,0.0,4200.54545413,107.151515141,4229.90909049,0.0,4225.78787837,8.2424242416,4221.15151473,4.1212121208,4229.39393897,0.0,4230.93939352,4.1212121208,4237.1212117,12.3636363624,4295.84848442,506.909090858,4227.84848443,292.606060577,4178.39393898,8.2424242416,3488.09090874,12.3636363624,4234.54545412,8.2424242416,42.0,42.0,?
2017-06-30 14:06:46.174569,4231.96969655,8.2424242416,4232.99999958,0.0,4199.5151511,107.151515141,4227.84848443,0.0,4229.90909049,8.2424242416,4223.7272723,4.1212121208,4228.36363594,0.0,4235.06060564,4.1212121208,4239.18181776,12.3636363624,4293.78787836,506.909090858,4226.30302988,292.606060577,4176.84848443,8.2424242416,3486.03030268,12.3636363624,4237.63636321,8.2424242416,42.0,42.0,?
2017-06-30 14:06:46.182663,4231.45454503,8.2424242416,4231.96969655,0.0,4207.24242382,107.151515141,4226.8181814,0.0,4226.30302988,8.2424242416,4226.8181814,4.1212121208,4231.96969655,0.0,4232.99999958,4.1212121208,4239.69696927,12.3636363624,4297.39393896,506.909090858,4223.21212079,292.606060577,4179.42424201,8.2424242416,3487.57575723,12.3636363624,4241.24242382,8.2424242416,42.0,42.0,?
2017-06-30 14:06:46.189512,4230.424242,8.2424242416,4230.93939352,0.0,4212.90909049,107.151515141,4227.84848443,0.0,4226.30302988,8.2424242416,4229.90909049,4.1212121208,4226.30302988,0.0,4229.90909049,4.1212121208,4236.09090867,12.3636363624,4298.42424199,506.909090858,4225.27272685,292.606060577,4179.42424201,8.2424242416,3488.09090874,12.3636363624,4233.51515109,8.2424242416,42.0,42.0,?
2017-06-30 14:06:46.197546,4229.39393897,8.2424242416,4231.96969655,0.0,4206.21212079,107.151515141,4227.84848443,0.0,4219.09090867,8.2424242416,4227.33333291,4.1212121208,4234.03030261,0.0,4232.99999958,4.1212121208,4239.18181776,12.3636363624,4295.3333329,506.909090858,4236.09090867,292.606060577,4179.42424201,8.2424242416,3489.12121177,12.3636363624,4234.54545412,8.2424242416,42.0,42.0,?
2017-06-30 14:06:46.205518,4226.30302988,8.2424242416,4234.54545412,0.0,4215.99999958,107.151515141,4228.87878746,0.0,4227.84848443,8.2424242416,4225.78787837,4.1212121208,4223.7272723,0.0,4234.54545412,4.1212121208,4238.66666624,12.3636363624,4299.45454502,506.909090858,4234.03030261,292.606060577,4177.87878746,8.2424242416,3489.12121177,12.3636363624,4230.424242,8.2424242416,42.0,42.0,?
2017-06-30 14:06:46.214772,4231.96969655,8.2424242416,4224.24242382,0.0,4203.1212117,107.151515141,4229.39393897,0.0,4228.36363594,8.2424242416,4228.87878746,4.1212121208,4230.93939352,0.0,4232.99999958,4.1212121208,4238.66666624,12.3636363624,4290.69696927,506.909090858,4218.57575715,292.606060577,4178.90909049,8.2424242416,3490.66666632,12.3636363624,4221.66666624,8.2424242416,42.0,42.0,?
2017-06-30 14:06:46.221602,4232.48484806,8.2424242416,4230.93939352,0.0,4215.99999958,107.151515141,4229.39393897,0.0,4231.45454503,8.2424242416,4230.93939352,4.1212121208,4220.63636321,0.0,4229.39393897,4.1212121208,4238.15151473,12.3636363624,4306.15151472,506.909090858,4231.96969655,292.606060577,4177.36363595,8.2424242416,3486.03030268,12.3636363624,4224.24242382,8.2424242416,42.0,42.0,?
2017-06-30 14:06:46.229511,4231.96969655,8.2424242416,4226.8181814,0.0,4202.60606019,107.151515141,4227.84848443,0.0,4225.78787837,8.2424242416,4226.8181814,4.1212121208,4227.33333291,0.0,4232.48484806,4.1212121208,4241.24242382,12.3636363624,4297.39393896,506.909090858,4229.39393897,292.606060577,4178.39393898,8.2424242416,3483.45454511,12.3636363624,4221.15151473,8.2424242416,42.0,42.0,?
2017-06-30 14:06:46.236506,4230.93939352,8.2424242416,4226.8181814,0.0,4209.8181814,107.151515141,4228.36363594,0.0,4231.96969655,8.2424242416,4222.18181776,4.1212121208,4211.87878746,0.0,4228.36363594,4.1212121208,4235.57575715,12.3636363624,4300.48484805,506.909090858,4233.51515109,292.606060577,4177.36363595,8.2424242416,3483.45454511,12.3636363624,4220.63636321,8.2424242416,42.0,42.0,?
2017-06-30 14:06:46.244722,4236.09090867,8.2424242416,4222.18181776,0.0,4195.39393897,107.151515141,4228.87878746,0.0,4227.33333291,8.2424242416,4224.24242382,4.1212121208,4222.69696927,0.0,4228.36363594,4.1212121208,4234.54545412,12.3636363624,4285.0303026,506.909090858,4219.60606018,292.606060577,4178.90909049,8.2424242416,3487.06060571,12.3636363624,4223.7272723,8.2424242416,42.0,42.0,?
2017-06-30 14:06:46.253503,4232.48484806,8.2424242416,4228.36363594,0.0,4212.39393897,107.151515141,4227.84848443,0.0,4228.87878746,8.2424242416,4224.75757534,4.1212121208,4214.45454503,0.0,4230.424242,4.1212121208,4234.54545412,12.3636363624,4302.0303026,506.909090858,4223.21212079,292.606060577,4178.90909049,8.2424242416,3486.5454542,12.3636363624,4234.03030261,8.2424242416,42.0,42.0,?
2017-06-30 14:06:46.260502,4232.99999958,8.2424242416,4220.63636321,0.0,4197.96969655,107.151515141,4229.39393897,0.0,4225.78787837,8.2424242416,4224.24242382,4.1212121208,4231.45454503,0.0,4235.06060564,4.1212121208,4236.09090867,12.3636363624,4286.57575715,506.909090858,4211.36363594,292.606060577,4179.93939352,8.2424242416,3485.51515117,12.3636363624,4228.87878746,8.2424242416,42.0,42.0,?
2017-06-30 14:06:46.268595,4232.48484806,8.2424242416,4226.30302988,0.0,4208.27272685,107.151515141,4229.90909049,0.0,4229.39393897,8.2424242416,4222.18181776,4.1212121208,4227.33333291,0.0,4230.424242,4.1212121208,4234.54545412,12.3636363624,4296.36363593,506.909090858,4224.24242382,292.606060577,4179.42424201,8.2424242416,3483.96969662,12.3636363624,4234.03030261,8.2424242416,42.0,42.0,?
2017-06-30 14:06:46.276505,4232.99999958,8.2424242416,4229.39393897,0.0,4195.39393897,107.151515141,4229.39393897,0.0,4227.84848443,8.2424242416,4224.75757534,4.1212121208,4234.54545412,0.0,4233.51515109,4.1212121208,4237.1212117,12.3636363624,4285.0303026,506.909090858,4213.93939352,292.606060577,4177.87878746,8.2424242416,3485.51515117,12.3636363624,4232.99999958,8.2424242416,42.0,42.0,?
2017-06-30 14:06:46.284515,4229.39393897,8.2424242416,4231.96969655,0.0,4212.39393897,107.151515141,4228.87878746,0.0,4224.75757534,8.2424242416,4223.21212079,4.1212121208,4230.424242,0.0,4232.48484806,4.1212121208,4238.15151473,12.3636363624,4296.87878745,506.909090858,4221.66666624,292.606060577,4177.87878746,8.2424242416,3483.45454511,12.3636363624,4243.81818139,8.2424242416,42.0,42.0,?
2017-06-30 14:06:46.292547,4230.93939352,8.2424242416,4227.84848443,0.0,4205.69696928,107.151515141,4229.39393897,0.0,4222.69696927,8.2424242416,4226.8181814,4.1212121208,4233.51515109,0.0,4232.48484806,4.1212121208,4237.63636321,12.3636363624,4287.09090866,506.909090858,4218.06060564,292.606060577,4179.42424201,8.2424242416,3480.87878753,12.3636363624,4234.03030261,8.2424242416,42.0,42.0,?
2017-06-30 14:06:46.301469,4234.54545412,8.2424242416,4232.99999958,0.0,4209.8181814,107.151515141,4229.39393897,0.0,4227.33333291,8.2424242416,4225.27272685,4.1212121208,4225.78787837,0.0,4231.45454503,4.1212121208,4236.09090867,12.3636363624,4301.51515109,506.909090858,4228.36363594,292.606060577,4178.90909049,8.2424242416,3483.45454511,12.3636363624,4237.63636321,8.2424242416,42.0,42.0,?
2017-06-30 14:06:46.307535,4232.48484806,8.2424242416,4234.54545412,0.0,4210.33333291,107.151515141,4229.39393897,0.0,4231.96969655,8.2424242416,4225.78787837,4.1212121208,4225.78787837,0.0,4233.51515109,4.1212121208,4237.1212117,12.3636363624,4302.54545412,506.909090858,4228.36363594,292.606060577,4176.84848443,8.2424242416,3485.51515117,12.3636363624,4235.06060564,8.2424242416,42.0,42.0,?
2017-06-30 14:06:46.315516,4225.27272685,8.2424242416,4232.48484806,0.0,4218.06060564,107.151515141,4229.39393897,0.0,4225.78787837,8.2424242416,4226.8181814,4.1212121208,4227.33333291,0.0,4230.424242,4.1212121208,4237.63636321,12.3636363624,4305.63636321,506.909090858,4241.75757533,292.606060577,4178.90909049,8.2424242416,3483.96969662,12.3636363624,4232.48484806,8.2424242416,42.0,42.0,?
2017-06-30 14:06:46.323512,4227.33333291,8.2424242416,4232.48484806,0.0,4217.54545412,107.151515141,4230.424242,0.0,4227.33333291,8.2424242416,4228.87878746,4.1212121208,4221.66666624,0.0,4229.90909049,4.1212121208,4236.60606018,12.3636363624,4296.87878745,506.909090858,4235.06060564,292.606060577,4177.87878746,8.2424242416,3482.93939359,12.3636363624,4226.8181814,8.2424242416,42.0,42.0,?
2017-06-30 14:06:46.333691,4236.09090867,0.0,4228.36363594,0.0,4210.33333291,107.151515141,4229.90909049,0.0,4225.27272685,8.2424242416,4224.24242382,4.1212121208,4226.8181814,0.0,4230.424242,4.1212121208,4237.63636321,12.3636363624,4293.27272684,506.909090858,4225.27272685,292.606060577,4177.36363595,8.2424242416,3487.06060571,12.3636363624,4228.87878746,8.2424242416,42.0,42.0,?
2017-06-30 14:06:46.339489,4232.99999958,0.0,4230.424242,0.0,4211.87878746,107.151515141,4228.36363594,0.0,4227.33333291,8.2424242416,4224.24242382,4.1212121208,4224.24242382,0.0,4229.90909049,4.1212121208,4236.60606018,12.3636363624,4294.81818139,506.909090858,4224.24242382,292.606060577,4178.90909049,8.2424242416,3484.99999965,12.3636363624,4223.7272723,8.2424242416,42.0,42.0,?
2017-06-30 14:06:46.353231,4231.45454503,0.0,4227.33333291,0.0,4203.1212117,107.151515141,4228.87878746,0.0,4223.7272723,8.2424242416,4224.24242382,4.1212121208,4228.87878746,0.0,4230.424242,4.1212121208,4237.1212117,12.3636363624,4288.63636321,506.909090858,4219.09090867,292.606060577,4179.93939352,8.2424242416,3481.39393905,12.3636363624,4224.75757534,49.4545454496,42.0,42.0,?
2017-06-30 14:06:46.355710,4230.93939352,0.0,4229.39393897,0.0,4211.36363594,82.424242416,4229.90909049,0.0,4232.48484806,8.2424242416,4222.18181776,4.1212121208,4219.09090867,0.0,4230.424242,4.1212121208,4234.54545412,12.3636363624,4292.24242381,506.909090858,4219.09090867,292.606060577,4176.84848443,8.2424242416,3481.90909056,12.3636363624,4226.8181814,49.4545454496,42.0,42.0,?
2017-06-30 14:06:46.364280,4231.45454503,0.0,4224.75757534,0.0,4195.39393897,82.424242416,4229.39393897,12.3636363624,4226.8181814,8.2424242416,4221.66666624,4.1212121208,4232.99999958,0.0,4231.45454503,4.1212121208,4236.09090867,12.3636363624,4279.87878745,506.909090858,4214.96969655,292.606060577,4178.39393898,8.2424242416,3484.99999965,12.3636363624,4221.15151473,49.4545454496,42.0,42.0,?
2017-06-30 14:06:46.372472,4227.33333291,0.0,4231.45454503,0.0,4203.63636322,82.424242416,4228.36363594,12.3636363624,4230.93939352,4.1212121208,4224.75757534,4.1212121208,4221.66666624,0.0,4228.36363594,4.1212121208,4234.54545412,12.3636363624,4299.96969654,506.909090858,4230.93939352,292.606060577,4177.87878746,8.2424242416,3483.96969662,12.3636363624,4226.30302988,49.4545454496,42.0,42.0,?
2017-06-30 14:06:46.378946,4230.424242,0.0,4228.36363594,0.0,4196.424242,82.424242416,4228.36363594,12.3636363624,4225.78787837,4.1212121208,4225.78787837,12.3636363624,4234.54545412,0.0,4233.51515109,4.1212121208,4238.15151473,12.3636363624,4296.87878745,506.909090858,4224.75757534,292.606060577,4177.36363595,8.2424242416,3486.5454542,12.3636363624,4237.63636321,49.4545454496,42.0,42.0,?
2017-06-30 14:06:46.386502,4230.424242,0.0,4234.03030261,0.0,4214.96969655,82.424242416,4228.87878746,12.3636363624,4226.30302988,4.1212121208,4222.69696927,12.3636363624,4224.24242382,218.424242402,4234.03030261,4.1212121208,4236.09090867,12.3636363624,4299.45454502,506.909090858,4226.30302988,292.606060577,4177.87878746,8.2424242416,3487.57575723,12.3636363624,4240.7272723,49.4545454496,42.0,42.0,?
2017-06-30 14:06:46.394507,4232.99999958,0.0,4226.8181814,0.0,4199.5151511,82.424242416,4228.87878746,12.3636363624,4221.66666624,4.1212121208,4225.27272685,12.3636363624,4233.51515109,218.424242402,4234.03030261,8.2424242416,4237.63636321,12.3636363624,4285.54545412,506.909090858,4218.06060564,292.606060577,4179.93939352,8.2424242416,3486.03030268,12.3636363624,4233.51515109,49.4545454496,42.0,42.0,?
2017-06-30 14:06:46.402746,4231.96969655,0.0,4227.84848443,0.0,4216.51515109,82.424242416,4227.84848443,12.3636363624,4228.87878746,4.1212121208,4226.8181814,12.3636363624,4224.75757534,218.424242402,4231.45454503,8.2424242416,4238.15151473,4.1212121208,4307.18181775,506.909090858,4234.03030261,292.606060577,4178.90909049,8.2424242416,3483.45454511,12.3636363624,4238.66666624,49.4545454496,42.0,42.0,?
2017-06-30 14:06:46.410818,4229.90909049,0.0,4226.8181814,0.0,4208.78787837,82.424242416,4227.84848443,12.3636363624,4228.36363594,4.1212121208,4227.33333291,12.3636363624,4236.09090867,218.424242402,4236.09090867,8.2424242416,4239.69696927,4.1212121208,4293.78787836,8.2424242416,4226.30302988,292.606060577,4178.39393898,8.2424242416,3484.48484814,12.3636363624,4229.90909049,49.4545454496,42.0,42.0,?
2017-06-30 14:06:46.419871,4229.39393897,0.0,4233.51515109,0.0,4223.21212079,82.424242416,4229.39393897,12.3636363624,4229.39393897,4.1212121208,4224.75757534,12.3636363624,4226.8181814,218.424242402,4232.48484806,8.2424242416,4238.15151473,4.1212121208,4302.0303026,8.2424242416,4236.60606018,4.1212121208,4177.87878746,8.2424242416,3486.03030268,12.3636363624,4232.48484806,49.4545454496,42.0,42.0,?
2017-06-30 14:06:46.426735,4232.99999958,0.0,4222.69696927,0.0,4205.69696928,82.424242416,4229.39393897,12.3636363624,4227.84848443,4.1212121208,4228.36363594,12.3636363624,4229.39393897,218.424242402,4234.54545412,8.2424242416,4240.7272723,4.1212121208,4290.18181775,8.2424242416,4222.18181776,4.1212121208,4177.36363595,0.0,3487.06060571,12.3636363624,4220.63636321,49.4545454496,42.0,42.0,?
2017-06-30 14:06:46.434721,4228.87878746,0.0,4222.18181776,0.0,4210.33333291,82.424242416,4227.33333291,12.3636363624,4228.36363594,4.1212121208,4228.36363594,12.3636363624,4218.06060564,218.424242402,4231.45454503,8.2424242416,4238.15151473,4.1212121208,4303.06060563,8.2424242416,4229.90909049,4.1212121208,4177.87878746,0.0,3485.51515117,0.0,4214.96969655,49.4545454496,42.0,42.0,?
2017-06-30 14:06:46.445965,4230.93939352,0.0,4228.36363594,0.0,4204.15151473,82.424242416,4227.84848443,12.3636363624,4227.33333291,4.1212121208,4228.87878746,12.3636363624,4219.09090867,218.424242402,4228.36363594,8.2424242416,4234.03030261,4.1212121208,4293.78787836,4.1212121208,4223.7272723,4.1212121208,4177.36363595,0.0,3483.96969662,0.0,4214.96969655,49.4545454496,42.0,42.0,?
2017-06-30 14:06:46.450651,4232.99999958,0.0,4230.424242,0.0,4204.15151473,82.424242416,4229.39393897,12.3636363624,4226.30302988,4.1212121208,4224.75757534,12.3636363624,4218.06060564,218.424242402,4225.27272685,8.2424242416,4235.06060564,4.1212121208,4300.48484805,4.1212121208,4224.75757534,4.1212121208,4179.42424201,0.0,3488.09090874,0.0,4226.8181814,49.4545454496,42.0,42.0,?
2017-06-30 14:06:46.457493,4228.87878746,0.0,4229.39393897,0.0,4198.99999958,82.424242416,4228.36363594,12.3636363624,4229.90909049,4.1212121208,4224.24242382,12.3636363624,4221.66666624,218.424242402,4229.90909049,8.2424242416,4238.66666624,4.1212121208,4296.87878745,4.1212121208,4220.1212117,4.1212121208,4179.93939352,0.0,3487.57575723,0.0,4223.21212079,49.4545454496,42.0,42.0,?
2017-06-30 14:06:46.466733,4230.424242,0.0,4230.93939352,0.0,4203.63636322,82.424242416,4227.33333291,12.3636363624,4226.30302988,4.1212121208,4220.63636321,12.3636363624,4228.36363594,218.424242402,4228.36363594,8.2424242416,4236.60606018,4.1212121208,4295.3333329,4.1212121208,4219.60606018,4.1212121208,4177.87878746,0.0,3482.93939359,0.0,4227.84848443,49.4545454496,42.0,42.0,?
2017-06-30 14:06:46.473600,4235.06060564,0.0,4231.45454503,0.0,4206.72727231,82.424242416,4229.90909049,12.3636363624,4226.30302988,4.1212121208,4222.69696927,12.3636363624,4222.69696927,218.424242402,4229.39393897,8.2424242416,4235.06060564,4.1212121208,4289.66666624,4.1212121208,4211.36363594,4.1212121208,4176.84848443,0.0,3481.39393905,0.0,4225.78787837,49.4545454496,42.0,42.0,?
2017-06-30 14:06:46.481618,4232.99999958,0.0,4228.36363594,0.0,4197.45454503,82.424242416,4231.45454503,12.3636363624,4222.18181776,4.1212121208,4223.21212079,12.3636363624,4228.87878746,218.424242402,4233.51515109,8.2424242416,4237.1212117,4.1212121208,4290.69696927,4.1212121208,4214.96969655,4.1212121208,4180.96969655,0.0,3486.03030268,0.0,4228.87878746,49.4545454496,42.0,42.0,?
2017-06-30 14:06:46.490499,4227.84848443,0.0,4234.03030261,0.0,4197.45454503,82.424242416,4229.39393897,12.3636363624,4228.36363594,4.1212121208,4223.7272723,12.3636363624,4227.84848443,218.424242402,4229.39393897,8.2424242416,4235.57575715,4.1212121208,4296.87878745,4.1212121208,4223.7272723,4.1212121208,4178.90909049,0.0,3486.03030268,0.0,4231.96969655,49.4545454496,42.0,42.0,?
2017-06-30 14:06:46.496812,4232.99999958,0.0,4230.424242,0.0,4191.27272685,82.424242416,4225.78787837,12.3636363624,4224.24242382,4.1212121208,4225.78787837,12.3636363624,4237.63636321,218.424242402,4230.424242,8.2424242416,4238.66666624,4.1212121208,4289.66666624,4.1212121208,4217.03030261,4.1212121208,4176.33333292,0.0,3484.99999965,0.0,4236.60606018,49.4545454496,42.0,42.0,?
2017-06-30 14:06:46.504521,4230.93939352,0.0,4232.48484806,0.0,4209.8181814,82.424242416,4225.78787837,12.3636363624,4227.33333291,4.1212121208,4227.33333291,12.3636363624,4223.7272723,218.424242402,4235.06060564,8.2424242416,4238.66666624,4.1212121208,4300.48484805,4.1212121208,4222.18181776,4.1212121208,4176.84848443,0.0,3483.96969662,0.0,4232.99999958,49.4545454496,42.0,42.0,?
2017-06-30 14:06:46.512522,4226.30302988,0.0,4230.93939352,0.0,4199.5151511,82.424242416,4228.87878746,12.3636363624,4222.69696927,4.1212121208,4227.84848443,12.3636363624,4234.03030261,218.424242402,4235.57575715,8.2424242416,4238.15151473,4.1212121208,4293.78787836,4.1212121208,4225.27272685,4.1212121208,4183.03030261,0.0,3485.51515117,0.0,4228.87878746,49.4545454496,42.0,42.0,?
2017-06-30 14:06:46.520509,4226.30302988,0.0,4237.1212117,0.0,4214.96969655,82.424242416,4230.424242,12.3636363624,4230.424242,4.1212121208,4228.36363594,12.3636363624,4223.21212079,218.424242402,4227.33333291,8.2424242416,4235.57575715,4.1212121208,4304.60606018,4.1212121208,4238.15151473,4.1212121208,4180.96969655,0.0,3483.96969662,0.0,4234.54545412,49.4545454496,42.0,42.0,?
2017-06-30 14:06:46.529549,4233.51515109,0.0,4228.36363594,0.0,4208.78787837,82.424242416,4228.36363594,12.3636363624,4226.8181814,4.1212121208,4228.87878746,12.3636363624,4231.96969655,218.424242402,4229.90909049,8.2424242416,4239.18181776,4.1212121208,4293.78787836,4.1212121208,4228.87878746,4.1212121208,4180.45454504,0.0,3486.03030268,0.0,4230.93939352,49.4545454496,42.0,42.0,?
2017-06-30 14:06:46.537226,4228.87878746,0.0,4231.96969655,0.0,4223.7272723,82.424242416,4226.30302988,12.3636363624,4228.87878746,4.1212121208,4226.30302988,12.3636363624,4220.1212117,218.424242402,4229.39393897,8.2424242416,4236.60606018,4.1212121208,4306.15151472,4.1212121208,4238.15151473,4.1212121208,4180.96969655,0.0,3486.03030268,0.0,4228.87878746,49.4545454496,42.0,42.0,?
2017-06-30 14:06:46.544500,4227.33333291,0.0,4225.78787837,0.0,4205.18181776,82.424242416,4226.30302988,12.3636363624,4222.69696927,4.1212121208,4227.33333291,12.3636363624,4229.90909049,218.424242402,4230.93939352,8.2424242416,4238.15151473,4.1212121208,4294.30302987,4.1212121208,4225.27272685,4.1212121208,4181.99999958,0.0,3488.09090874,0.0,4218.57575715,49.4545454496,42.0,42.0,?
2017-06-30 14:06:46.552557,4230.424242,0.0,4225.78787837,0.0,4214.96969655,82.424242416,4227.84848443,12.3636363624,4226.30302988,4.1212121208,4224.24242382,12.3636363624,4220.1212117,218.424242402,4228.87878746,8.2424242416,4236.60606018,4.1212121208,4304.60606018,4.1212121208,4231.96969655,4.1212121208,4180.96969655,0.0,3487.06060571,0.0,4220.1212117,49.4545454496,42.0,42.0,?
2017-06-30 14:06:46.560580,4234.54545412,0.0,4223.7272723,0.0,4197.45454503,82.424242416,4229.39393897,12.3636363624,4226.8181814,4.1212121208,4224.75757534,12.3636363624,4232.48484806,218.424242402,4232.48484806,8.2424242416,4237.1212117,4.1212121208,4284.51515109,4.1212121208,4219.60606018,4.1212121208,4180.45454504,0.0,3483.45454511,0.0,4218.57575715,49.4545454496,42.0,42.0,?
2017-06-30 14:06:46.571434,4230.93939352,0.0,4231.45454503,0.0,4204.15151473,82.424242416,4228.87878746,12.3636363624,4229.39393897,4.1212121208,4224.75757534,12.3636363624,4222.69696927,218.424242402,4231.45454503,8.2424242416,4236.09090867,4.1212121208,4298.93939351,4.1212121208,4223.7272723,4.1212121208,4179.42424201,0.0,3482.93939359,0.0,4226.8181814,49.4545454496,42.0,42.0,?
2017-06-30 14:06:46.575917,4229.90909049,0.0,4226.8181814,0.0,4191.78787837,82.424242416,4227.84848443,12.3636363624,4225.27272685,4.1212121208,4226.8181814,12.3636363624,4225.78787837,218.424242402,4233.51515109,8.2424242416,4237.1212117,4.1212121208,4289.15151472,4.1212121208,4212.39393897,4.1212121208,4179.42424201,0.0,3484.99999965,0.0,4222.69696927,49.4545454496,42.0,42.0,?
2017-06-30 14:06:46.583936,4229.90909049,0.0,4228.36363594,0.0,4200.03030261,82.424242416,4228.36363594,12.3636363624,4226.30302988,4.1212121208,4223.21212079,12.3636363624,4224.75757534,218.424242402,4230.424242,8.2424242416,4235.57575715,4.1212121208,4291.21212078,4.1212121208,4223.7272723,4.1212121208,4177.36363595,0.0,3484.99999965,0.0,4231.96969655,49.4545454496,42.0,42.0,?
2017-06-30 14:06:46.591523,4229.90909049,0.0,4230.93939352,0.0,4192.30302988,82.424242416,4228.87878746,12.3636363624,4230.424242,4.1212121208,4224.75757534,12.3636363624,4226.8181814,218.424242402,4231.45454503,8.2424242416,4235.57575715,4.1212121208,4288.63636321,4.1212121208,4219.60606018,4.1212121208,4176.84848443,0.0,3484.48484814,0.0,4226.30302988,49.4545454496,42.0,42.0,?
2017-06-30 14:06:46.599719,4228.87878746,0.0,4231.45454503,0.0,4203.63636322,82.424242416,4227.33333291,12.3636363624,4225.27272685,4.1212121208,4224.75757534,12.3636363624,4228.36363594,218.424242402,4234.54545412,8.2424242416,4237.1212117,4.1212121208,4300.48484805,4.1212121208,4223.7272723,4.1212121208,4178.90909049,0.0,3488.09090874,0.0,4236.09090867,49.4545454496,42.0,42.0,?
2017-06-30 14:06:46.609630,4229.90909049,0.0,4231.96969655,0.0,4213.424242,82.424242416,4227.84848443,12.3636363624,4224.24242382,4.1212121208,4226.30302988,12.3636363624,4228.87878746,218.424242402,4237.63636321,8.2424242416,4237.63636321,4.1212121208,4292.24242381,4.1212121208,4222.69696927,4.1212121208,4178.90909049,0.0,3487.06060571,0.0,4241.75757533,49.4545454496,42.0,42.0,?
2017-06-30 14:06:46.614570,4234.54545412,0.0,4230.424242,0.0,4213.424242,82.424242416,4227.84848443,12.3636363624,4223.7272723,4.1212121208,4224.75757534,12.3636363624,4231.45454503,218.424242402,4233.51515109,8.2424242416,4236.60606018,4.1212121208,4295.3333329,4.1212121208,4229.90909049,4.1212121208,4179.93939352,0.0,3485.51515117,0.0,4242.27272685,49.4545454496,42.0,42.0,?
2017-06-30 14:06:46.625867,4234.54545412,0.0,4229.90909049,0.0,4215.48484806,82.424242416,4226.30302988,12.3636363624,4229.39393897,4.1212121208,4225.78787837,12.3636363624,4225.27272685,218.424242402,4231.45454503,8.2424242416,4232.48484806,4.1212121208,4301.51515109,4.1212121208,4231.45454503,4.1212121208,4179.42424201,0.0,3486.5454542,0.0,4228.87878746,49.4545454496,42.0,42.0,?
2017-06-30 14:06:46.631060,4230.93939352,0.0,4228.36363594,0.0,4212.39393897,82.424242416,4228.36363594,12.3636363624,4226.8181814,4.1212121208,4227.84848443,12.3636363624,4230.424242,218.424242402,4235.06060564,8.2424242416,4235.06060564,4.1212121208,4297.90909048,4.1212121208,4235.57575715,4.1212121208,4178.90909049,0.0,3490.1515148,0.0,4225.78787837,49.4545454496,42.0,42.0,?
2017-06-30 14:06:46.638725,4227.84848443,0.0,4231.96969655,0.0,4216.51515109,82.424242416,4229.39393897,12.3636363624,4230.93939352,4.1212121208,4228.87878746,12.3636363624,4221.66666624,218.424242402,4235.06060564,8.2424242416,4239.18181776,4.1212121208,4298.93939351,4.1212121208,4237.63636321,4.1212121208,4178.39393898,0.0,3487.57575723,0.0,4226.8181814,49.4545454496,42.0,42.0,?
2017-06-30 14:06:46.646520,4233.51515109,0.0,4222.69696927,0.0,4199.5151511,82.424242416,4226.8181814,12.3636363624,4225.78787837,4.1212121208,4226.30302988,12.3636363624,4228.87878746,218.424242402,4233.51515109,8.2424242416,4241.24242382,4.1212121208,4290.69696927,4.1212121208,4222.18181776,4.1212121208,4181.99999958,0.0,3486.5454542,0.0,4221.66666624,49.4545454496,42.0,42.0,?
2017-06-30 14:06:46.655445,4232.48484806,0.0,4229.39393897,0.0,4214.45454503,82.424242416,4227.84848443,12.3636363624,4233.51515109,4.1212121208,4225.27272685,12.3636363624,4218.06060564,218.424242402,4228.87878746,8.2424242416,4234.54545412,4.1212121208,4304.09090866,4.1212121208,4225.27272685,4.1212121208,4179.93939352,0.0,3484.99999965,0.0,4220.1212117,49.4545454496,42.0,42.0,?
2017-06-30 14:06:46.662496,4229.39393897,0.0,4228.36363594,0.0,4203.63636322,82.424242416,4230.424242,12.3636363624,4228.87878746,4.1212121208,4225.78787837,12.3636363624,4227.33333291,218.424242402,4231.45454503,8.2424242416,4235.06060564,4.1212121208,4292.75757533,4.1212121208,4218.06060564,4.1212121208,4180.45454504,0.0,3486.5454542,0.0,4218.57575715,49.4545454496,42.0,42.0,?
2017-06-30 14:06:46.671076,4225.27272685,0.0,4229.39393897,0.0,4208.78787837,82.424242416,4230.424242,12.3636363624,4228.87878746,4.1212121208,4225.27272685,12.3636363624,4210.84848443,218.424242402,4230.424242,8.2424242416,4236.60606018,4.1212121208,4300.99999957,4.1212121208,4227.33333291,4.1212121208,4180.96969655,0.0,3484.99999965,0.0,4223.7272723,49.4545454496,42.0,42.0,?
2017-06-30 14:06:46.677520,4231.96969655,0.0,4226.30302988,0.0,4193.84848443,82.424242416,4228.36363594,12.3636363624,4224.24242382,4.1212121208,4225.78787837,12.3636363624,4224.24242382,218.424242402,4231.45454503,8.2424242416,4238.66666624,4.1212121208,4290.18181775,4.1212121208,4220.1212117,4.1212121208,4179.93939352,0.0,3487.57575723,0.0,4229.90909049,49.4545454496,42.0,42.0,?
2017-06-30 14:06:46.687716,4231.45454503,0.0,4232.99999958,0.0,4212.39393897,82.424242416,4226.30302988,12.3636363624,4228.87878746,4.1212121208,4223.7272723,12.3636363624,4221.15151473,218.424242402,4229.90909049,8.2424242416,4235.57575715,4.1212121208,4305.12121169,4.1212121208,4227.84848443,4.1212121208,4179.42424201,0.0,3490.1515148,0.0,4237.1212117,49.4545454496,42.0,42.0,?
2017-06-30 14:06:46.693603,4230.93939352,0.0,4226.8181814,0.0,4199.5151511,82.424242416,4227.33333291,12.3636363624,4223.7272723,4.1212121208,4223.21212079,12.3636363624,4238.15151473,218.424242402,4237.1212117,8.2424242416,4238.66666624,4.1212121208,4288.63636321,4.1212121208,4213.93939352,4.1212121208,4181.99999958,0.0,3488.60606026,0.0,4232.48484806,49.4545454496,42.0,42.0,?
2017-06-30 14:06:46.701523,4229.39393897,0.0,4231.45454503,0.0,4202.60606019,82.424242416,4228.87878746,12.3636363624,4226.30302988,4.1212121208,4222.18181776,12.3636363624,4227.84848443,218.424242402,4236.09090867,8.2424242416,4238.15151473,4.1212121208,4298.42424199,4.1212121208,4222.69696927,4.1212121208,4178.39393898,0.0,3483.96969662,0.0,4234.54545412,49.4545454496,42.0,42.0,?
2017-06-30 14:06:46.711569,4230.93939352,0.0,4229.39393897,0.0,4184.06060564,82.424242416,4228.36363594,12.3636363624,4225.27272685,4.1212121208,4227.84848443,12.3636363624,4238.15151473,218.424242402,4236.60606018,8.2424242416,4238.15151473,4.1212121208,4290.69696927,4.1212121208,4218.57575715,4.1212121208,4175.30302989,0.0,3486.03030268,0.0,4229.39393897,49.4545454496,42.0,42.0,?
2017-06-30 14:06:46.717514,4231.45454503,0.0,4230.424242,0.0,4207.75757534,82.424242416,4228.36363594,12.3636363624,4223.7272723,4.1212121208,4227.84848443,12.3636363624,4232.99999958,218.424242402,4235.57575715,8.2424242416,4238.15151473,4.1212121208,4305.12121169,4.1212121208,4234.54545412,4.1212121208,4178.90909049,0.0,3489.63636329,0.0,4236.60606018,49.4545454496,42.0,42.0,?
2017-06-30 14:06:46.729008,4230.424242,0.0,4228.36363594,0.0,4206.72727231,82.424242416,4229.39393897,12.3636363624,4225.78787837,4.1212121208,4227.84848443,12.3636363624,4232.99999958,218.424242402,4237.1212117,8.2424242416,4240.21212079,4.1212121208,4290.69696927,4.1212121208,4225.78787837,4.1212121208,4179.93939352,0.0,3488.09090874,0.0,4227.33333291,49.4545454496,42.0,42.0,?
2017-06-30 14:06:46.733524,4225.27272685,0.0,4234.03030261,0.0,4210.33333291,82.424242416,4227.33333291,12.3636363624,4228.36363594,4.1212121208,4225.27272685,12.3636363624,4226.30302988,218.424242402,4235.57575715,8.2424242416,4239.69696927,4.1212121208,4299.96969654,4.1212121208,4233.51515109,4.1212121208,4175.8181814,0.0,3486.5454542,0.0,4228.87878746,49.4545454496,42.0,42.0,?
2017-06-30 14:06:46.742137,4223.7272723,0.0,4234.03030261,0.0,4210.33333291,82.424242416,4229.90909049,12.3636363624,4227.33333291,4.1212121208,4228.87878746,12.3636363624,4227.33333291,218.424242402,4237.63636321,8.2424242416,4240.21212079,4.1212121208,4302.0303026,4.1212121208,4232.99999958,4.1212121208,4175.30302989,0.0,3487.06060571,0.0,4226.8181814,49.4545454496,42.0,42.0,?
2017-06-30 14:06:46.750198,4227.84848443,0.0,4227.33333291,0.0,4214.45454503,82.424242416,4230.424242,12.3636363624,4224.24242382,4.1212121208,4226.8181814,12.3636363624,4226.30302988,218.424242402,4232.99999958,8.2424242416,4238.66666624,4.1212121208,4305.12121169,4.1212121208,4238.66666624,4.1212121208,4179.93939352,0.0,3487.57575723,0.0,4228.87878746,49.4545454496,42.0,42.0,?
2017-06-30 14:06:46.757762,4229.90909049,0.0,4227.84848443,0.0,4207.75757534,82.424242416,4227.33333291,12.3636363624,4229.90909049,4.1212121208,4224.75757534,12.3636363624,4220.1212117,218.424242402,4231.45454503,8.2424242416,4235.06060564,4.1212121208,4297.90909048,4.1212121208,4230.424242,4.1212121208,4179.93939352,0.0,3483.45454511,0.0,4224.24242382,49.4545454496,42.0,42.0,?
2017-06-30 14:06:46.764519,4229.90909049,0.0,4227.33333291,0.0,4202.60606019,82.424242416,4227.33333291,12.3636363624,4225.78787837,4.1212121208,4223.21212079,12.3636363624,4225.27272685,218.424242402,4232.99999958,8.2424242416,4236.09090867,4.1212121208,4298.42424199,4.1212121208,4224.75757534,4.1212121208,4179.42424201,0.0,3481.90909056,0.0,4229.90909049,49.4545454496,42.0,42.0,?
2017-06-30 14:06:46.772523,4228.36363594,0.0,4227.84848443,0.0,4207.75757534,82.424242416,4230.424242,12.3636363624,4227.84848443,4.1212121208,4226.30302988,12.3636363624,4225.78787837,218.424242402,4232.48484806,8.2424242416,4239.69696927,4.1212121208,4297.90909048,4.1212121208,4225.78787837,4.1212121208,4178.39393898,0.0,3483.96969662,0.0,4227.33333291,49.4545454496,42.0,42.0,?
2017-06-30 14:06:46.780965,4230.93939352,0.0,4225.27272685,0.0,4197.45454503,82.424242416,4229.39393897,12.3636363624,4223.7272723,4.1212121208,4226.30302988,12.3636363624,4235.57575715,218.424242402,4230.424242,8.2424242416,4239.18181776,4.1212121208,4289.15151472,4.1212121208,4221.15151473,4.1212121208,4179.42424201,0.0,3484.99999965,0.0,4223.7272723,49.4545454496,42.0,42.0,?
2017-06-30 14:06:46.788506,4230.424242,0.0,4229.90909049,0.0,4199.5151511,82.424242416,4227.84848443,12.3636363624,4230.424242,4.1212121208,4226.30302988,12.3636363624,4220.63636321,218.424242402,4230.93939352,8.2424242416,4234.03030261,4.1212121208,4299.96969654,4.1212121208,4220.1212117,4.1212121208,4178.90909049,0.0,3481.39393905,0.0,4224.24242382,49.4545454496,42.0,42.0,?
2017-06-30 14:06:46.796520,4228.87878746,0.0,4224.24242382,0.0,4190.24242382,82.424242416,4227.84848443,12.3636363624,4226.30302988,4.1212121208,4226.30302988,12.3636363624,4231.45454503,218.424242402,4234.54545412,8.2424242416,4236.09090867,4.1212121208,4288.12121169,4.1212121208,4214.96969655,4.1212121208,4181.48484807,0.0,3485.51515117,0.0,4229.39393897,49.4545454496,42.0,42.0,?
2017-06-30 14:06:46.805256,4226.8181814,0.0,4231.45454503,0.0,4209.8181814,82.424242416,4228.36363594,12.3636363624,4230.424242,4.1212121208,4224.24242382,12.3636363624,4223.21212079,218.424242402,4231.45454503,8.2424242416,4235.06060564,4.1212121208,4297.39393896,4.1212121208,4224.75757534,4.1212121208,4179.42424201,0.0,3485.51515117,0.0,4231.45454503,49.4545454496,42.0,42.0,?
2017-06-30 14:06:46.813039,4232.99999958,0.0,4230.424242,0.0,4198.48484806,82.424242416,4229.90909049,12.3636363624,4224.24242382,4.1212121208,4224.75757534,12.3636363624,4233.51515109,218.424242402,4233.51515109,8.2424242416,4237.1212117,4.1212121208,4294.81818139,4.1212121208,4219.09090867,4.1212121208,4177.87878746,0.0,3480.36363602,0.0,4231.96969655,49.4545454496,42.0,42.0,?
2017-06-30 14:06:46.820771,4233.51515109,0.0,4232.48484806,0.0,4214.45454503,82.424242416,4230.424242,12.3636363624,4227.33333291,4.1212121208,4225.27272685,12.3636363624,4222.69696927,218.424242402,4232.48484806,8.2424242416,4236.60606018,4.1212121208,4307.18181775,4.1212121208,4229.90909049,4.1212121208,4177.87878746,0.0,3478.81818147,0.0,4242.27272685,49.4545454496,42.0,42.0,?
2017-06-30 14:06:46.828945,4231.96969655,0.0,4227.33333291,0.0,4204.66666625,82.424242416,4229.39393897,12.3636363624,4223.21212079,4.1212121208,4228.36363594,12.3636363624,4233.51515109,218.424242402,4233.51515109,8.2424242416,4239.69696927,4.1212121208,4290.18181775,4.1212121208,4225.27272685,4.1212121208,4180.45454504,0.0,3484.48484814,0.0,4234.54545412,49.4545454496,42.0,42.0,?
2017-06-30 14:06:46.835865,4228.36363594,0.0,4233.51515109,0.0,4220.63636321,82.424242416,4230.424242,12.3636363624,4227.84848443,4.1212121208,4225.27272685,12.3636363624,4222.69696927,218.424242402,4230.424242,8.2424242416,4238.15151473,4.1212121208,4303.57575715,4.1212121208,4234.03030261,4.1212121208,4177.87878746,0.0,3484.48484814,0.0,4230.93939352,49.4545454496,42.0,42.0,?
2017-06-30 14:06:46.844737,4230.424242,12.3636363624,4227.33333291,0.0,4209.8181814,82.424242416,4230.93939352,12.3636363624,4227.84848443,4.1212121208,4225.78787837,12.3636363624,4229.90909049,218.424242402,4233.51515109,8.2424242416,4239.69696927,4.1212121208,4291.21212078,4.1212121208,4222.69696927,4.1212121208,4178.39393898,0.0,3484.48484814,0.0,4224.75757534,49.4545454496,42.0,42.0,?
2017-06-30 14:06:46.851655,4227.33333291,12.3636363624,4230.93939352,4.1212121208,4227.84848443,82.424242416,4229.39393897,12.3636363624,4230.424242,4.1212121208,4226.8181814,12.3636363624,4219.09090867,218.424242402,4231.45454503,8.2424242416,4236.09090867,4.1212121208,4300.99999957,4.1212121208,4232.99999958,4.1212121208,4178.39393898,0.0,3484.48484814,0.0,4231.96969655,49.4545454496,42.0,42.0,?
2017-06-30 14:06:46.859511,4228.87878746,12.3636363624,4226.8181814,4.1212121208,4213.424242,82.424242416,4229.39393897,12.3636363624,4227.33333291,4.1212121208,4228.87878746,12.3636363624,4227.84848443,218.424242402,4231.45454503,8.2424242416,4236.60606018,4.1212121208,4287.60606018,4.1212121208,4215.99999958,4.1212121208,4178.90909049,0.0,3483.45454511,0.0,4222.69696927,4.1212121208,42.0,42.0,?
2017-06-30 14:06:46.867625,4229.39393897,12.3636363624,4225.78787837,4.1212121208,4213.93939352,144.242424228,4230.424242,12.3636363624,4228.87878746,4.1212121208,4223.7272723,12.3636363624,4222.18181776,218.424242402,4227.33333291,8.2424242416,4237.63636321,4.1212121208,4300.99999957,4.1212121208,4223.7272723,4.1212121208,4181.48484807,0.0,3484.99999965,0.0,4219.09090867,4.1212121208,42.0,42.0,?
2017-06-30 14:06:46.875531,4229.90909049,12.3636363624,4224.75757534,4.1212121208,4201.06060564,144.242424228,4230.424242,4.1212121208,4230.424242,4.1212121208,4224.75757534,12.3636363624,4222.18181776,218.424242402,4227.84848443,8.2424242416,4236.60606018,4.1212121208,4292.24242381,4.1212121208,4223.21212079,4.1212121208,4183.03030261,0.0,3486.5454542,0.0,4214.45454503,4.1212121208,42.0,42.0,?
2017-06-30 14:06:46.885902,4229.39393897,12.3636363624,4229.90909049,4.1212121208,4203.1212117,144.242424228,4229.39393897,4.1212121208,4227.84848443,8.2424242416,4225.27272685,12.3636363624,4217.54545412,218.424242402,4228.87878746,8.2424242416,4234.54545412,4.1212121208,4298.42424199,4.1212121208,4227.33333291,4.1212121208,4181.48484807,0.0,3486.5454542,0.0,4224.24242382,4.1212121208,42.0,42.0,?
2017-06-30 14:06:46.891513,4231.96969655,12.3636363624,4230.424242,4.1212121208,4199.5151511,144.242424228,4227.33333291,4.1212121208,4226.8181814,8.2424242416,4225.27272685,8.2424242416,4220.63636321,218.424242402,4232.99999958,8.2424242416,4236.09090867,4.1212121208,4295.3333329,4.1212121208,4220.63636321,4.1212121208,4179.42424201,0.0,3485.51515117,0.0,4225.78787837,4.1212121208,42.0,42.0,?
2017-06-30 14:06:46.900441,4235.57575715,12.3636363624,4227.84848443,4.1212121208,4200.03030261,144.242424228,4226.30302988,4.1212121208,4223.7272723,8.2424242416,4222.18181776,8.2424242416,4229.39393897,0.0,4234.03030261,8.2424242416,4236.60606018,4.1212121208,4295.84848442,4.1212121208,4224.24242382,4.1212121208,4178.90909049,0.0,3482.93939359,0.0,4234.54545412,4.1212121208,42.0,42.0,?
2017-06-30 14:06:46.906533,4234.03030261,12.3636363624,4230.93939352,4.1212121208,4205.69696928,144.242424228,4228.36363594,4.1212121208,4227.33333291,8.2424242416,4226.8181814,8.2424242416,4228.36363594,0.0,4234.03030261,4.1212121208,4236.09090867,4.1212121208,4292.75757533,4.1212121208,4220.63636321,4.1212121208,4178.39393898,0.0,3479.33333299,0.0,4238.15151473,4.1212121208,42.0,42.0,?
2017-06-30 14:06:46.914973,4234.03030261,12.3636363624,4229.90909049,4.1212121208,4204.15151473,144.242424228,4229.39393897,4.1212121208,4223.21212079,8.2424242416,4225.78787837,8.2424242416,4234.03030261,0.0,4235.06060564,4.1212121208,4240.7272723,12.3636363624,4293.27272684,4.1212121208,4219.60606018,4.1212121208,4179.42424201,0.0,3483.45454511,0.0,4241.24242382,4.1212121208,42.0,42.0,?
2017-06-30 14:06:46.923676,4232.99999958,12.3636363624,4232.99999958,4.1212121208,4203.1212117,144.242424228,4227.84848443,4.1212121208,4227.84848443,8.2424242416,4224.75757534,8.2424242416,4228.36363594,0.0,4234.54545412,4.1212121208,4240.7272723,12.3636363624,4295.3333329,300.848484818,4222.69696927,4.1212121208,4176.84848443,0.0,3483.96969662,0.0,4228.87878746,4.1212121208,42.0,42.0,?
2017-06-30 14:06:46.930514,4232.48484806,12.3636363624,4231.45454503,4.1212121208,4194.36363594,144.242424228,4226.8181814,4.1212121208,4223.7272723,8.2424242416,4230.424242,8.2424242416,4238.15151473,0.0,4234.03030261,4.1212121208,4238.66666624,12.3636363624,4290.18181775,300.848484818,4227.33333291,65.9393939328,4180.96969655,0.0,3485.51515117,0.0,4226.30302988,4.1212121208,42.0,42.0,?
2017-06-30 14:06:46.939116,4228.36363594,12.3636363624,4236.09090867,4.1212121208,4214.96969655,144.242424228,4227.84848443,4.1212121208,4226.8181814,8.2424242416,4231.96969655,8.2424242416,4225.27272685,0.0,4232.99999958,4.1212121208,4236.60606018,12.3636363624,4304.60606018,300.848484818,4236.09090867,65.9393939328,4183.54545413,12.3636363624,3486.5454542,0.0,4233.51515109,4.1212121208,42.0,42.0,?
2017-06-30 14:06:46.946608,4229.39393897,12.3636363624,4228.36363594,4.1212121208,4205.18181776,144.242424228,4227.33333291,4.1212121208,4225.27272685,8.2424242416,4228.36363594,8.2424242416,4231.96969655,0.0,4234.03030261,4.1212121208,4239.18181776,12.3636363624,4295.84848442,300.848484818,4226.8181814,65.9393939328,4181.48484807,12.3636363624,3487.57575723,0.0,4228.36363594,4.1212121208,42.0,42.0,?
2017-06-30 14:06:46.954525,4228.36363594,12.3636363624,4232.99999958,4.1212121208,4217.03030261,144.242424228,4225.78787837,4.1212121208,4232.99999958,8.2424242416,4227.84848443,8.2424242416,4222.18181776,0.0,4230.424242,4.1212121208,4235.06060564,12.3636363624,4306.15151472,309.09090906,4234.03030261,65.9393939328,4176.33333292,12.3636363624,3486.03030268,0.0,4224.75757534,4.1212121208,42.0,42.0,?
2017-06-30 14:06:46.962403,4231.45454503,12.3636363624,4225.78787837,4.1212121208,4205.69696928,144.242424228,4226.8181814,4.1212121208,4223.21212079,8.2424242416,4229.90909049,8.2424242416,4233.51515109,0.0,4232.99999958,4.1212121208,4236.60606018,12.3636363624,4296.36363593,309.09090906,4225.78787837,78.3030302952,4179.42424201,12.3636363624,3483.96969662,0.0,4222.18181776,4.1212121208,42.0,42.0,?
2017-06-30 14:06:46.970266,4227.84848443,12.3636363624,4228.36363594,4.1212121208,4213.93939352,144.242424228,4229.90909049,4.1212121208,4224.75757534,8.2424242416,4226.30302988,8.2424242416,4215.48484806,0.0,4229.90909049,4.1212121208,4236.60606018,12.3636363624,4308.21212078,309.09090906,4234.54545412,78.3030302952,4179.42424201,12.3636363624,3480.36363602,0.0,4223.7272723,4.1212121208,42.0,42.0,?
2017-06-30 14:06:46.977508,4228.36363594,12.3636363624,4225.78787837,4.1212121208,4194.36363594,144.242424228,4228.87878746,4.1212121208,4225.78787837,8.2424242416,4225.78787837,8.2424242416,4225.27272685,0.0,4231.45454503,4.1212121208,4237.63636321,12.3636363624,4292.75757533,309.09090906,4222.18181776,78.3030302952,4179.42424201,12.3636363624,3481.90909056,0.0,4220.1212117,4.1212121208,42.0,42.0,?
2017-06-30 14:06:46.987237,4229.39393897,12.3636363624,4232.99999958,4.1212121208,4207.75757534,144.242424228,4228.36363594,4.1212121208,4228.87878746,8.2424242416,4225.27272685,8.2424242416,4220.1212117,0.0,4232.48484806,4.1212121208,4235.57575715,12.3636363624,4303.57575715,309.09090906,4228.87878746,78.3030302952,4179.42424201,12.3636363624,3483.96969662,0.0,4230.424242,4.1212121208,42.0,42.0,?
2017-06-30 14:06:46.993652,4231.96969655,12.3636363624,4227.84848443,4.1212121208,4192.8181814,144.242424228,4230.93939352,4.1212121208,4223.7272723,8.2424242416,4227.33333291,8.2424242416,4231.45454503,0.0,4237.63636321,4.1212121208,4238.66666624,12.3636363624,4285.54545412,309.09090906,4213.424242,78.3030302952,4179.93939352,12.3636363624,3484.99999965,0.0,4228.36363594,4.1212121208,42.0,42.0,?
2017-06-30 14:06:47.001725,4229.90909049,12.3636363624,4230.424242,4.1212121208,4204.66666625,144.242424228,4228.36363594,4.1212121208,4226.30302988,8.2424242416,4223.7272723,8.2424242416,4222.18181776,0.0,4232.48484806,4.1212121208,4236.09090867,12.3636363624,4297.39393896,309.09090906,4217.03030261,78.3030302952,4179.93939352,12.3636363624,3483.96969662,0.0,4229.90909049,4.1212121208,42.0,42.0,?
2017-06-30 14:06:47.010430,4230.424242,12.3636363624,4227.84848443,4.1212121208,4196.424242,144.242424228,4225.27272685,4.1212121208,4226.30302988,8.2424242416,4224.24242382,8.2424242416,4230.93939352,0.0,4232.99999958,4.1212121208,4238.15151473,12.3636363624,4289.66666624,309.09090906,4212.39393897,78.3030302952,4181.48484807,12.3636363624,3481.39393905,0.0,4225.27272685,4.1212121208,42.0,42.0,?
2017-06-30 14:06:47.024163,4230.93939352,12.3636363624,4228.87878746,4.1212121208,4202.09090867,144.242424228,4228.87878746,4.1212121208,4230.424242,8.2424242416,4227.33333291,8.2424242416,4232.48484806,0.0,4235.57575715,4.1212121208,4235.57575715,12.3636363624,4286.57575715,309.09090906,4222.18181776,78.3030302952,4177.36363595,12.3636363624,3486.5454542,0.0,4234.54545412,4.1212121208,42.0,42.0,?
2017-06-30 14:06:47.026298,4230.93939352,12.3636363624,4228.87878746,4.1212121208,4202.09090867,144.242424228,4228.87878746,4.1212121208,4230.424242,8.2424242416,4227.33333291,8.2424242416,4232.48484806,0.0,4235.57575715,4.1212121208,4235.57575715,12.3636363624,4286.57575715,309.09090906,4222.18181776,78.3030302952,4177.36363595,12.3636363624,3486.5454542,0.0,4234.54545412,4.1212121208,42.0,42.0,?
2017-06-30 14:06:47.032515,4231.96969655,12.3636363624,4231.96969655,4.1212121208,4205.69696928,144.242424228,4228.87878746,4.1212121208,4226.8181814,8.2424242416,4225.78787837,8.2424242416,4227.33333291,0.0,4231.96969655,4.1212121208,4235.06060564,12.3636363624,4304.60606018,309.09090906,4228.36363594,78.3030302952,4178.90909049,12.3636363624,3485.51515117,0.0,4236.60606018,4.1212121208,42.0,42.0,?
2017-06-30 14:06:47.040502,4232.48484806,12.3636363624,4231.96969655,4.1212121208,4207.75757534,144.242424228,4231.96969655,4.1212121208,4228.87878746,8.2424242416,4228.36363594,8.2424242416,4226.30302988,0.0,4229.90909049,4.1212121208,4237.1212117,12.3636363624,4310.27272684,309.09090906,4234.03030261,78.3030302952,4177.87878746,12.3636363624,3483.96969662,0.0,4229.90909049,4.1212121208,42.0,42.0,?
2017-06-30 14:06:47.049245,4231.96969655,12.3636363624,4226.8181814,4.1212121208,4206.72727231,144.242424228,4230.424242,4.1212121208,4226.8181814,8.2424242416,4227.84848443,8.2424242416,4228.87878746,0.0,4229.90909049,4.1212121208,4237.1212117,12.3636363624,4299.96969654,309.09090906,4235.06060564,78.3030302952,4178.39393898,12.3636363624,3486.03030268,0.0,4227.84848443,4.1212121208,42.0,42.0,?
2017-06-30 14:06:47.056659,4228.36363594,12.3636363624,4227.84848443,4.1212121208,4209.8181814,144.242424228,4228.36363594,4.1212121208,4230.93939352,8.2424242416,4226.8181814,8.2424242416,4219.09090867,0.0,4231.96969655,4.1212121208,4235.06060564,12.3636363624,4292.75757533,309.09090906,4226.8181814,78.3030302952,4178.39393898,12.3636363624,3483.45454511,0.0,4221.15151473,4.1212121208,42.0,42.0,?
2017-06-30 14:06:47.064832,4230.93939352,12.3636363624,4225.78787837,4.1212121208,4207.75757534,144.242424228,4229.39393897,4.1212121208,4226.30302988,8.2424242416,4227.84848443,8.2424242416,4225.78787837,0.0,4230.424242,4.1212121208,4236.60606018,12.3636363624,4299.96969654,309.09090906,4230.93939352,78.3030302952,4179.42424201,12.3636363624,3485.51515117,0.0,4222.69696927,4.1212121208,42.0,42.0,?
2017-06-30 14:06:47.072644,4231.45454503,12.3636363624,4227.33333291,4.1212121208,4213.424242,144.242424228,4228.87878746,4.1212121208,4228.87878746,8.2424242416,4229.90909049,8.2424242416,4222.18181776,0.0,4227.33333291,4.1212121208,4236.60606018,12.3636363624,4304.60606018,309.09090906,4230.93939352,78.3030302952,4178.90909049,12.3636363624,3486.5454542,0.0,4222.18181776,4.1212121208,42.0,42.0,?
2017-06-30 14:06:47.081264,4231.96969655,12.3636363624,4219.09090867,4.1212121208,4196.424242,144.242424228,4228.87878746,4.1212121208,4223.7272723,8.2424242416,4227.33333291,8.2424242416,4226.30302988,0.0,4230.93939352,4.1212121208,4237.63636321,12.3636363624,4287.09090866,309.09090906,4211.36363594,78.3030302952,4180.96969655,12.3636363624,3484.99999965,0.0,4218.06060564,4.1212121208,42.0,42.0,?
2017-06-30 14:06:47.088601,4229.39393897,12.3636363624,4225.27272685,4.1212121208,4208.27272685,144.242424228,4229.90909049,4.1212121208,4231.96969655,8.2424242416,4227.33333291,8.2424242416,4209.8181814,0.0,4230.93939352,4.1212121208,4234.54545412,12.3636363624,4297.39393896,309.09090906,4222.69696927,78.3030302952,4179.42424201,12.3636363624,3483.45454511,0.0,4219.09090867,4.1212121208,42.0,42.0,?
2017-06-30 14:06:47.095492,4233.51515109,12.3636363624,4224.75757534,4.1212121208,4196.424242,144.242424228,4231.96969655,4.1212121208,4227.84848443,8.2424242416,4229.39393897,8.2424242416,4224.24242382,0.0,4230.424242,4.1212121208,4235.06060564,12.3636363624,4288.12121169,309.09090906,4220.63636321,78.3030302952,4178.90909049,12.3636363624,3485.51515117,0.0,4219.09090867,4.1212121208,42.0,42.0,?
2017-06-30 14:06:47.103509,4229.90909049,12.3636363624,4231.45454503,4.1212121208,4204.66666625,144.242424228,4231.45454503,4.1212121208,4225.78787837,8.2424242416,4225.78787837,8.2424242416,4216.51515109,0.0,4229.39393897,4.1212121208,4235.06060564,12.3636363624,4299.96969654,309.09090906,4219.09090867,78.3030302952,4175.8181814,12.3636363624,3483.45454511,0.0,4224.75757534,4.1212121208,42.0,42.0,?
2017-06-30 14:06:47.111519,4230.424242,12.3636363624,4228.87878746,4.1212121208,4194.36363594,144.242424228,4228.36363594,4.1212121208,4221.15151473,8.2424242416,4223.21212079,8.2424242416,4230.93939352,0.0,4236.09090867,4.1212121208,4238.66666624,12.3636363624,4288.63636321,309.09090906,4212.39393897,78.3030302952,4175.30302989,12.3636363624,3483.45454511,0.0,4231.96969655,4.1212121208,42.0,42.0,?
